Data from unagg-15c-2a-1h_Absorbance__82__00509.txt Node

Date: Mon May 06 09:35:28 CEST 2024
User: Laser008
Spectrometer: MAYP115816
Trigger mode: 0
Integration Time (sec): 2.000000E-1
Scans to average: 10
Electric dark correction enabled: true
Nonlinearity correction enabled: true
Boxcar width: 5
XAxis mode: Wavelengths
Number of Pixels in Spectrum: 2068
>>>>>Begin Spectral Data<<<<<
198.914	-1.94
199.384	-1.79
199.855	-1.65
200.325	-1.53
200.796	-1.44
201.266	-1.39
201.737	-1.32
202.207	-1.26
202.677	-1.21
203.147	-1.16
203.618	-1.13
204.088	-1.11
204.558	-1.08
205.028	-1.07
205.498	-1.07
205.968	-1.07
206.439	-1.06
206.909	-1.06
207.379	-1.06
207.849	-1.05
208.319	-1.05
208.789	-1.05
209.258	-1.05
209.728	-1.04
210.198	-1.04
210.668	-1.04
211.138	-1.04
211.608	-1.04
212.077	-1.04
212.547	-1.04
213.017	-1.04
213.486	-1.04
213.956	-1.04
214.426	-1.04
214.895	-1.03
215.365	-1.03
215.834	-1.03
216.304	-1.03
216.773	-1.03
217.243	-1.02
217.712	-1.02
218.181	-1.02
218.651	-1.02
219.12	-1.01
219.589	-1.01
220.058	-1.01
220.528	-1.01
220.997	-1.01
221.466	-1
221.935	-1
222.404	-0.99
222.873	-0.99
223.342	-0.98
223.812	-0.98
224.281	-0.97
224.749	-0.96
225.218	-0.95
225.687	-0.94
226.156	-0.93
226.625	-0.91
227.094	-0.9
227.563	-0.88
228.031	-0.86
228.5	-0.84
228.969	-0.81
229.438	-0.79
229.906	-0.76
230.375	-0.72
230.844	-0.68
231.312	-0.64
231.781	-0.6
232.249	-0.55
232.718	-0.51
233.186	-0.46
233.655	-0.41
234.123	-0.36
234.591	-0.31
235.06	-0.26
235.528	-0.22
235.996	-0.17
236.465	-0.13
236.933	-0.08
237.401	-0.04
237.869	0
238.337	0.04
238.805	0.08
239.274	0.11
239.742	0.14
240.21	0.17
240.678	0.2
241.146	0.23
241.614	0.25
242.081	0.28
242.549	0.3
243.017	0.32
243.485	0.34
243.953	0.36
244.421	0.37
244.888	0.39
245.356	0.4
245.824	0.42
246.291	0.43
246.759	0.44
247.227	0.45
247.694	0.47
248.162	0.48
248.629	0.49
249.097	0.49
249.564	0.5
250.032	0.51
250.499	0.52
250.967	0.53
251.434	0.54
251.901	0.54
252.369	0.55
252.836	0.56
253.303	0.56
253.77	0.57
254.237	0.57
254.705	0.58
255.172	0.58
255.639	0.59
256.106	0.59
256.573	0.6
257.04	0.6
257.507	0.6
257.974	0.6
258.441	0.61
258.908	0.61
259.375	0.61
259.841	0.61
260.308	0.62
260.775	0.62
261.242	0.62
261.709	0.62
262.175	0.62
262.642	0.62
263.109	0.62
263.575	0.62
264.042	0.62
264.508	0.62
264.975	0.62
265.441	0.62
265.908	0.62
266.374	0.62
266.841	0.62
267.307	0.62
267.773	0.62
268.24	0.62
268.706	0.62
269.172	0.62
269.639	0.62
270.105	0.62
270.571	0.62
271.037	0.61
271.503	0.61
271.969	0.61
272.435	0.61
272.902	0.61
273.368	0.61
273.834	0.61
274.3	0.6
274.765	0.6
275.231	0.6
275.697	0.6
276.163	0.6
276.629	0.59
277.095	0.59
277.56	0.59
278.026	0.59
278.492	0.58
278.958	0.58
279.423	0.58
279.889	0.58
280.354	0.57
280.82	0.57
281.286	0.57
281.751	0.57
282.217	0.57
282.682	0.57
283.147	0.57
283.613	0.57
284.078	0.56
284.544	0.56
285.009	0.56
285.474	0.56
285.939	0.56
286.405	0.55
286.87	0.55
287.335	0.55
287.8	0.55
288.265	0.55
288.73	0.55
289.195	0.54
289.66	0.54
290.125	0.54
290.59	0.54
291.055	0.54
291.52	0.54
291.985	0.54
292.45	0.53
292.915	0.53
293.38	0.53
293.844	0.53
294.309	0.53
294.774	0.53
295.239	0.53
295.703	0.53
296.168	0.53
296.632	0.53
297.097	0.53
297.562	0.52
298.026	0.52
298.491	0.52
298.955	0.52
299.419	0.52
299.884	0.52
300.348	0.52
300.813	0.52
301.277	0.52
301.741	0.52
302.205	0.52
302.67	0.52
303.134	0.52
303.598	0.52
304.062	0.52
304.526	0.52
304.99	0.52
305.454	0.52
305.919	0.51
306.383	0.51
306.847	0.51
307.31	0.51
307.774	0.51
308.238	0.51
308.702	0.51
309.166	0.51
309.63	0.51
310.094	0.51
310.557	0.51
311.021	0.51
311.485	0.51
311.948	0.51
312.412	0.51
312.876	0.51
313.339	0.51
313.803	0.51
314.266	0.51
314.73	0.5
315.193	0.5
315.657	0.5
316.12	0.5
316.584	0.5
317.047	0.5
317.51	0.5
317.973	0.5
318.437	0.5
318.9	0.5
319.363	0.5
319.826	0.5
320.29	0.5
320.753	0.5
321.216	0.5
321.679	0.5
322.142	0.49
322.605	0.49
323.068	0.49
323.531	0.49
323.994	0.49
324.457	0.49
324.92	0.49
325.382	0.49
325.845	0.49
326.308	0.49
326.771	0.49
327.233	0.49
327.696	0.49
328.159	0.49
328.622	0.49
329.084	0.48
329.547	0.48
330.009	0.48
330.472	0.48
330.934	0.48
331.397	0.48
331.859	0.48
332.322	0.48
332.784	0.48
333.246	0.48
333.709	0.48
334.171	0.48
334.633	0.47
335.096	0.47
335.558	0.47
336.02	0.47
336.482	0.47
336.944	0.47
337.406	0.47
337.868	0.47
338.331	0.47
338.793	0.47
339.255	0.47
339.717	0.47
340.178	0.47
340.64	0.46
341.102	0.46
341.564	0.46
342.026	0.46
342.488	0.46
342.949	0.46
343.411	0.46
343.873	0.46
344.335	0.46
344.796	0.46
345.258	0.46
345.719	0.46
346.181	0.46
346.643	0.46
347.104	0.46
347.566	0.45
348.027	0.45
348.488	0.45
348.95	0.45
349.411	0.45
349.873	0.45
350.334	0.45
350.795	0.45
351.256	0.45
351.718	0.45
352.179	0.45
352.64	0.45
353.101	0.45
353.562	0.44
354.023	0.44
354.484	0.44
354.945	0.44
355.406	0.44
355.867	0.44
356.328	0.44
356.789	0.44
357.25	0.44
357.711	0.44
358.172	0.44
358.633	0.44
359.093	0.44
359.554	0.44
360.015	0.44
360.476	0.44
360.936	0.44
361.397	0.44
361.858	0.44
362.318	0.44
362.779	0.44
363.239	0.44
363.7	0.44
364.16	0.44
364.621	0.44
365.081	0.44
365.541	0.44
366.002	0.44
366.462	0.44
366.922	0.44
367.383	0.44
367.843	0.44
368.303	0.44
368.763	0.44
369.223	0.44
369.684	0.44
370.144	0.44
370.604	0.44
371.064	0.44
371.524	0.44
371.984	0.44
372.444	0.44
372.904	0.44
373.363	0.44
373.823	0.44
374.283	0.44
374.743	0.44
375.203	0.44
375.663	0.44
376.122	0.44
376.582	0.44
377.042	0.44
377.501	0.44
377.961	0.44
378.42	0.44
378.88	0.44
379.34	0.44
379.799	0.44
380.259	0.44
380.718	0.44
381.177	0.44
381.637	0.44
382.096	0.44
382.555	0.44
383.015	0.44
383.474	0.44
383.933	0.44
384.393	0.44
384.852	0.44
385.311	0.44
385.77	0.44
386.229	0.44
386.688	0.44
387.147	0.44
387.606	0.44
388.065	0.44
388.524	0.44
388.983	0.44
389.442	0.44
389.901	0.44
390.36	0.44
390.819	0.44
391.277	0.44
391.736	0.44
392.195	0.44
392.654	0.44
393.112	0.44
393.571	0.44
394.03	0.44
394.488	0.44
394.947	0.44
395.405	0.44
395.864	0.44
396.322	0.44
396.781	0.44
397.239	0.44
397.698	0.44
398.156	0.44
398.614	0.44
399.073	0.44
399.531	0.44
399.989	0.44
400.447	0.44
400.905	0.44
401.364	0.44
401.822	0.43
402.28	0.43
402.738	0.43
403.196	0.43
403.654	0.43
404.112	0.43
404.57	0.43
405.028	0.43
405.486	0.43
405.944	0.43
406.402	0.43
406.859	0.43
407.317	0.43
407.775	0.43
408.233	0.43
408.691	0.43
409.148	0.43
409.606	0.43
410.064	0.43
410.521	0.43
410.979	0.43
411.436	0.43
411.894	0.43
412.351	0.43
412.809	0.42
413.266	0.42
413.724	0.42
414.181	0.42
414.638	0.42
415.096	0.42
415.553	0.42
416.01	0.42
416.467	0.42
416.925	0.42
417.382	0.42
417.839	0.42
418.296	0.42
418.753	0.42
419.21	0.42
419.667	0.42
420.124	0.42
420.581	0.42
421.038	0.42
421.495	0.42
421.952	0.42
422.409	0.42
422.866	0.42
423.322	0.42
423.779	0.42
424.236	0.42
424.693	0.42
425.149	0.42
425.606	0.42
426.063	0.42
426.519	0.42
426.976	0.42
427.433	0.42
427.889	0.42
428.346	0.42
428.802	0.42
429.258	0.42
429.715	0.42
430.171	0.42
430.628	0.42
431.084	0.42
431.54	0.42
431.997	0.42
432.453	0.42
432.909	0.42
433.365	0.42
433.821	0.41
434.277	0.41
434.734	0.41
435.19	0.41
435.646	0.41
436.102	0.41
436.558	0.41
437.014	0.41
437.47	0.41
437.925	0.41
438.381	0.41
438.837	0.41
439.293	0.41
439.749	0.41
440.205	0.41
440.66	0.41
441.116	0.41
441.572	0.41
442.027	0.41
442.483	0.41
442.939	0.41
443.394	0.41
443.85	0.41
444.305	0.41
444.761	0.41
445.216	0.41
445.672	0.41
446.127	0.41
446.582	0.41
447.038	0.41
447.493	0.41
447.948	0.41
448.403	0.41
448.859	0.41
449.314	0.41
449.769	0.41
450.224	0.41
450.679	0.41
451.134	0.41
451.589	0.4
452.044	0.4
452.499	0.4
452.954	0.4
453.409	0.4
453.864	0.4
454.319	0.4
454.774	0.4
455.229	0.4
455.684	0.4
456.138	0.4
456.593	0.4
457.048	0.4
457.503	0.4
457.957	0.4
458.412	0.4
458.866	0.4
459.321	0.4
459.776	0.4
460.23	0.39
460.685	0.39
461.139	0.39
461.593	0.39
462.048	0.39
462.502	0.39
462.957	0.39
463.411	0.39
463.865	0.39
464.319	0.39
464.774	0.39
465.228	0.39
465.682	0.39
466.136	0.39
466.59	0.39
467.044	0.39
467.499	0.39
467.953	0.39
468.407	0.39
468.861	0.38
469.315	0.38
469.768	0.38
470.222	0.38
470.676	0.38
471.13	0.38
471.584	0.38
472.038	0.38
472.491	0.38
472.945	0.38
473.399	0.38
473.852	0.38
474.306	0.38
474.76	0.38
475.213	0.38
475.667	0.38
476.12	0.38
476.574	0.38
477.027	0.38
477.481	0.38
477.934	0.38
478.388	0.38
478.841	0.38
479.294	0.38
479.748	0.38
480.201	0.38
480.654	0.38
481.107	0.38
481.561	0.38
482.014	0.39
482.467	0.39
482.92	0.39
483.373	0.39
483.826	0.39
484.279	0.4
484.732	0.4
485.185	0.4
485.638	0.4
486.091	0.4
486.544	0.4
486.997	0.4
487.449	0.4
487.902	0.4
488.355	0.4
488.808	0.4
489.26	0.4
489.713	0.39
490.166	0.39
490.618	0.39
491.071	0.39
491.523	0.39
491.976	0.39
492.429	0.39
492.881	0.39
493.333	0.39
493.786	0.4
494.238	0.4
494.691	0.4
495.143	0.4
495.595	0.4
496.048	0.4
496.5	0.41
496.952	0.41
497.404	0.41
497.856	0.41
498.309	0.41
498.761	0.41
499.213	0.41
499.665	0.41
500.117	0.41
500.569	0.41
501.021	0.41
501.473	0.42
501.925	0.42
502.377	0.42
502.828	0.42
503.28	0.42
503.732	0.42
504.184	0.43
504.636	0.43
505.087	0.43
505.539	0.43
505.991	0.43
506.442	0.43
506.894	0.43
507.345	0.43
507.797	0.43
508.249	0.43
508.7	0.43
509.151	0.43
509.603	0.43
510.054	0.43
510.506	0.44
510.957	0.44
511.408	0.44
511.86	0.44
512.311	0.44
512.762	0.44
513.213	0.44
513.665	0.44
514.116	0.44
514.567	0.44
515.018	0.44
515.469	0.44
515.92	0.44
516.371	0.44
516.822	0.44
517.273	0.44
517.724	0.44
518.175	0.44
518.626	0.44
519.076	0.44
519.527	0.44
519.978	0.43
520.429	0.43
520.88	0.43
521.33	0.43
521.781	0.42
522.232	0.42
522.682	0.42
523.133	0.42
523.583	0.42
524.034	0.43
524.484	0.43
524.935	0.44
525.385	0.44
525.836	0.45
526.286	0.46
526.736	0.46
527.187	0.47
527.637	0.47
528.087	0.47
528.538	0.48
528.988	0.48
529.438	0.48
529.888	0.48
530.338	0.49
530.788	0.49
531.238	0.49
531.688	0.49
532.139	0.49
532.589	0.5
533.038	0.5
533.488	0.5
533.938	0.5
534.388	0.5
534.838	0.5
535.288	0.51
535.738	0.51
536.187	0.51
536.637	0.51
537.087	0.51
537.537	0.52
537.986	0.52
538.436	0.52
538.885	0.52
539.335	0.52
539.785	0.52
540.234	0.52
540.684	0.52
541.133	0.52
541.582	0.52
542.032	0.52
542.481	0.53
542.931	0.53
543.38	0.53
543.829	0.53
544.278	0.53
544.728	0.53
545.177	0.54
545.626	0.54
546.075	0.54
546.524	0.54
546.973	0.54
547.422	0.54
547.871	0.54
548.32	0.54
548.769	0.55
549.218	0.55
549.667	0.55
550.116	0.55
550.565	0.55
551.014	0.55
551.463	0.55
551.911	0.55
552.36	0.55
552.809	0.55
553.258	0.56
553.706	0.56
554.155	0.56
554.603	0.56
555.052	0.56
555.501	0.56
555.949	0.56
556.398	0.56
556.846	0.55
557.294	0.55
557.743	0.55
558.191	0.55
558.64	0.55
559.088	0.56
559.536	0.56
559.985	0.56
560.433	0.56
560.881	0.57
561.329	0.57
561.777	0.57
562.225	0.57
562.674	0.58
563.122	0.58
563.57	0.58
564.018	0.57
564.466	0.57
564.914	0.57
565.362	0.57
565.809	0.57
566.257	0.57
566.705	0.58
567.153	0.58
567.601	0.58
568.048	0.59
568.496	0.59
568.944	0.6
569.392	0.61
569.839	0.61
570.287	0.62
570.734	0.62
571.182	0.63
571.63	0.63
572.077	0.63
572.525	0.64
572.972	0.64
573.419	0.64
573.867	0.64
574.314	0.64
574.761	0.64
575.209	0.64
575.656	0.65
576.103	0.65
576.551	0.65
576.998	0.65
577.445	0.65
577.892	0.65
578.339	0.65
578.786	0.65
579.233	0.66
579.68	0.66
580.127	0.66
580.574	0.66
581.021	0.65
581.468	0.65
581.915	0.65
582.362	0.65
582.809	0.65
583.255	0.65
583.702	0.65
584.149	0.64
584.596	0.64
585.042	0.64
585.489	0.63
585.936	0.63
586.382	0.63
586.829	0.63
587.275	0.63
587.722	0.63
588.168	0.62
588.615	0.62
589.061	0.61
589.508	0.61
589.954	0.61
590.4	0.61
590.847	0.6
591.293	0.6
591.739	0.6
592.185	0.6
592.632	0.6
593.078	0.6
593.524	0.6
593.97	0.6
594.416	0.6
594.862	0.6
595.308	0.59
595.754	0.59
596.2	0.59
596.646	0.59
597.092	0.59
597.538	0.59
597.984	0.59
598.43	0.59
598.876	0.59
599.321	0.59
599.767	0.59
600.213	0.58
600.659	0.58
601.104	0.58
601.55	0.58
601.995	0.57
602.441	0.57
602.887	0.57
603.332	0.56
603.778	0.56
604.223	0.56
604.668	0.56
605.114	0.56
605.559	0.56
606.005	0.56
606.45	0.56
606.895	0.56
607.341	0.55
607.786	0.55
608.231	0.55
608.676	0.55
609.121	0.54
609.566	0.54
610.012	0.53
610.457	0.53
610.902	0.53
611.347	0.53
611.792	0.52
612.237	0.52
612.682	0.52
613.127	0.52
613.571	0.52
614.016	0.52
614.461	0.52
614.906	0.51
615.351	0.51
615.795	0.51
616.24	0.51
616.685	0.5
617.129	0.5
617.574	0.49
618.019	0.49
618.463	0.49
618.908	0.48
619.352	0.48
619.797	0.48
620.241	0.48
620.686	0.48
621.13	0.48
621.574	0.48
622.019	0.47
622.463	0.47
622.907	0.47
623.352	0.47
623.796	0.47
624.24	0.47
624.684	0.46
625.128	0.46
625.572	0.46
626.016	0.46
626.461	0.46
626.905	0.46
627.349	0.46
627.793	0.45
628.236	0.45
628.68	0.45
629.124	0.45
629.568	0.45
630.012	0.45
630.456	0.44
630.9	0.44
631.343	0.44
631.787	0.44
632.231	0.44
632.674	0.43
633.118	0.43
633.562	0.43
634.005	0.43
634.449	0.43
634.892	0.43
635.336	0.43
635.779	0.43
636.223	0.43
636.666	0.43
637.109	0.43
637.553	0.43
637.996	0.43
638.439	0.43
638.883	0.43
639.326	0.43
639.769	0.43
640.212	0.43
640.655	0.43
641.099	0.43
641.542	0.43
641.985	0.43
642.428	0.43
642.871	0.43
643.314	0.43
643.757	0.43
644.2	0.43
644.643	0.43
645.085	0.43
645.528	0.43
645.971	0.43
646.414	0.43
646.857	0.44
647.299	0.44
647.742	0.44
648.185	0.44
648.627	0.44
649.07	0.44
649.513	0.45
649.955	0.45
650.398	0.45
650.84	0.45
651.283	0.45
651.725	0.45
652.168	0.45
652.61	0.45
653.052	0.46
653.495	0.45
653.937	0.38
654.379	0.35
654.821	0.36
655.264	0.36
655.706	0.36
656.148	0.36
656.59	0.36
657.032	0.37
657.474	0.37
657.916	0.36
658.358	0.36
658.8	0.43
659.242	0.49
659.684	0.48
660.126	0.48
660.568	0.48
661.01	0.48
661.452	0.49
661.894	0.49
662.335	0.49
662.777	0.49
663.219	0.49
663.661	0.5
664.102	0.5
664.544	0.5
664.985	0.5
665.427	0.5
665.869	0.51
666.31	0.51
666.752	0.51
667.193	0.51
667.634	0.51
668.076	0.52
668.517	0.52
668.959	0.52
669.4	0.52
669.841	0.53
670.282	0.53
670.724	0.54
671.165	0.54
671.606	0.54
672.047	0.54
672.488	0.54
672.929	0.55
673.37	0.55
673.811	0.55
674.252	0.55
674.693	0.55
675.134	0.55
675.575	0.55
676.016	0.55
676.457	0.55
676.898	0.56
677.339	0.56
677.78	0.56
678.22	0.56
678.661	0.56
679.102	0.57
679.542	0.57
679.983	0.57
680.424	0.57
680.864	0.57
681.305	0.57
681.745	0.57
682.186	0.57
682.626	0.58
683.067	0.58
683.507	0.58
683.948	0.58
684.388	0.59
684.828	0.59
685.269	0.59
685.709	0.59
686.149	0.59
686.589	0.59
687.029	0.59
687.47	0.6
687.91	0.6
688.35	0.6
688.79	0.6
689.23	0.6
689.67	0.6
690.11	0.6
690.55	0.6
690.99	0.61
691.43	0.61
691.87	0.61
692.31	0.61
692.749	0.61
693.189	0.61
693.629	0.62
694.069	0.62
694.508	0.62
694.948	0.62
695.388	0.62
695.827	0.62
696.267	0.63
696.706	0.63
697.146	0.63
697.586	0.63
698.025	0.63
698.464	0.63
698.904	0.63
699.343	0.63
699.783	0.63
700.222	0.63
700.661	0.63
701.101	0.63
701.54	0.63
701.979	0.63
702.418	0.63
702.857	0.63
703.297	0.63
703.736	0.63
704.175	0.64
704.614	0.64
705.053	0.64
705.492	0.64
705.931	0.64
706.37	0.64
706.809	0.64
707.248	0.64
707.687	0.64
708.125	0.64
708.564	0.64
709.003	0.64
709.442	0.64
709.88	0.64
710.319	0.64
710.758	0.64
711.196	0.64
711.635	0.64
712.074	0.64
712.512	0.64
712.951	0.64
713.389	0.64
713.828	0.64
714.266	0.64
714.705	0.64
715.143	0.64
715.581	0.64
716.02	0.64
716.458	0.64
716.896	0.63
717.334	0.63
717.773	0.63
718.211	0.63
718.649	0.63
719.087	0.63
719.525	0.63
719.963	0.63
720.401	0.63
720.839	0.63
721.277	0.63
721.715	0.63
722.153	0.63
722.591	0.63
723.029	0.63
723.467	0.63
723.905	0.62
724.342	0.62
724.78	0.62
725.218	0.62
725.656	0.62
726.093	0.62
726.531	0.62
726.969	0.62
727.406	0.62
727.844	0.62
728.281	0.62
728.719	0.62
729.156	0.62
729.594	0.62
730.031	0.62
730.469	0.62
730.906	0.62
731.343	0.62
731.781	0.62
732.218	0.62
732.655	0.62
733.092	0.62
733.53	0.62
733.967	0.62
734.404	0.62
734.841	0.62
735.278	0.61
735.715	0.61
736.152	0.61
736.589	0.61
737.026	0.61
737.463	0.61
737.9	0.6
738.337	0.6
738.774	0.6
739.211	0.6
739.647	0.59
740.084	0.59
740.521	0.59
740.958	0.59
741.394	0.58
741.831	0.58
742.268	0.57
742.704	0.57
743.141	0.57
743.577	0.56
744.014	0.56
744.45	0.56
744.887	0.55
745.323	0.55
745.76	0.55
746.196	0.55
746.632	0.55
747.069	0.55
747.505	0.55
747.941	0.55
748.378	0.55
748.814	0.55
749.25	0.55
749.686	0.55
750.122	0.55
750.558	0.55
750.994	0.55
751.43	0.55
751.866	0.55
752.302	0.55
752.738	0.55
753.174	0.55
753.61	0.55
754.046	0.55
754.482	0.55
754.918	0.55
755.354	0.55
755.789	0.55
756.225	0.55
756.661	0.55
757.096	0.54
757.532	0.54
757.968	0.54
758.403	0.54
758.839	0.54
759.274	0.54
759.71	0.53
760.145	0.53
760.581	0.52
761.016	0.52
761.452	0.51
761.887	0.51
762.322	0.5
762.758	0.5
763.193	0.5
763.628	0.49
764.063	0.49
764.499	0.48
764.934	0.48
765.369	0.47
765.804	0.47
766.239	0.47
766.674	0.46
767.109	0.46
767.544	0.45
767.979	0.44
768.414	0.44
768.849	0.43
769.284	0.43
769.719	0.43
770.154	0.42
770.588	0.41
771.023	0.41
771.458	0.4
771.893	0.39
772.327	0.39
772.762	0.38
773.197	0.37
773.631	0.36
774.066	0.36
774.5	0.35
774.935	0.34
775.369	0.33
775.804	0.32
776.238	0.31
776.673	0.3
777.107	0.3
777.541	0.29
777.976	0.28
778.41	0.27
778.844	0.26
779.279	0.25
779.713	0.24
780.147	0.23
780.581	0.22
781.015	0.21
781.449	0.19
781.883	0.18
782.317	0.16
782.751	0.14
783.185	0.12
783.619	0.1
784.053	0.08
784.487	0.07
784.921	0.05
785.355	0.03
785.789	0.01
786.223	-0
786.656	-0.01
787.09	-0.02
787.524	-0.03
787.957	-0.04
788.391	-0.04
788.825	-0.05
789.258	-0.05
789.692	-0.05
790.125	-0.05
790.559	-0.05
790.992	-0.06
791.426	-0.06
791.859	-0.05
792.293	-0.05
792.726	-0.04
793.159	-0.04
793.593	-0.04
794.026	-0.04
794.459	-0.04
794.892	-0.04
795.326	-0.04
795.759	-0.05
796.192	-0.05
796.625	-0.06
797.058	-0.06
797.491	-0.07
797.924	-0.08
798.357	-0.08
798.79	-0.08
799.223	-0.08
799.656	-0.08
800.089	-0.08
800.522	-0.08
800.955	-0.09
801.387	-0.09
801.82	-0.09
802.253	-0.09
802.686	-0.09
803.118	-0.09
803.551	-0.09
803.984	-0.08
804.416	-0.08
804.849	-0.07
805.281	-0.07
805.714	-0.07
806.146	-0.07
806.579	-0.07
807.011	-0.07
807.444	-0.07
807.876	-0.06
808.308	-0.07
808.741	-0.07
809.173	-0.07
809.605	-0.08
810.037	-0.08
810.47	-0.08
810.902	-0.08
811.334	-0.08
811.766	-0.08
812.198	-0.08
812.63	-0.08
813.062	-0.08
813.494	-0.08
813.926	-0.08
814.358	-0.08
814.79	-0.07
815.222	-0.07
815.654	-0.07
816.086	-0.07
816.518	-0.08
816.949	-0.08
817.381	-0.08
817.813	-0.07
818.245	-0.06
818.676	-0.05
819.108	-0.04
819.54	-0.03
819.971	-0.02
820.403	-0.01
820.834	0.01
821.266	0.03
821.697	0.05
822.129	0.07
822.56	0.09
822.991	0.1
823.423	0.11
823.854	0.13
824.286	0.14
824.717	0.16
825.148	0.18
825.579	0.19
826.01	0.2
826.442	0.21
826.873	0.23
827.304	0.24
827.735	0.24
828.166	0.25
828.597	0.26
829.028	0.27
829.459	0.27
829.89	0.28
830.321	0.28
830.752	0.29
831.183	0.29
831.613	0.3
832.044	0.3
832.475	0.31
832.906	0.31
833.336	0.32
833.767	0.32
834.198	0.32
834.628	0.33
835.059	0.33
835.49	0.33
835.92	0.33
836.351	0.34
836.781	0.34
837.212	0.34
837.642	0.34
838.072	0.34
838.503	0.34
838.933	0.34
839.364	0.35
839.794	0.35
840.224	0.35
840.654	0.35
841.085	0.35
841.515	0.35
841.945	0.35
842.375	0.35
842.805	0.35
843.235	0.35
843.665	0.35
844.095	0.35
844.525	0.35
844.955	0.35
845.385	0.35
845.815	0.35
846.245	0.35
846.675	0.35
847.105	0.35
847.534	0.35
847.964	0.35
848.394	0.35
848.824	0.35
849.253	0.35
849.683	0.35
850.112	0.35
850.542	0.35
850.972	0.36
851.401	0.36
851.831	0.36
852.26	0.36
852.69	0.36
853.119	0.36
853.548	0.36
853.978	0.36
854.407	0.36
854.836	0.36
855.266	0.36
855.695	0.35
856.124	0.35
856.553	0.35
856.983	0.35
857.412	0.35
857.841	0.35
858.27	0.35
858.699	0.35
859.128	0.34
859.557	0.34
859.986	0.34
860.415	0.34
860.844	0.34
861.273	0.34
861.702	0.34
862.13	0.34
862.559	0.34
862.988	0.34
863.417	0.34
863.845	0.34
864.274	0.34
864.703	0.34
865.131	0.34
865.56	0.34
865.989	0.34
866.417	0.34
866.846	0.34
867.274	0.33
867.703	0.33
868.131	0.33
868.559	0.33
868.988	0.33
869.416	0.33
869.844	0.33
870.273	0.33
870.701	0.33
871.129	0.33
871.557	0.33
871.986	0.33
872.414	0.33
872.842	0.33
873.27	0.33
873.698	0.33
874.126	0.32
874.554	0.32
874.982	0.32
875.41	0.32
875.838	0.32
876.266	0.32
876.694	0.32
877.122	0.32
877.549	0.32
877.977	0.32
878.405	0.32
878.833	0.32
879.26	0.32
879.688	0.32
