Data from unagg-15c-2a-1h_Absorbance__232__00659.txt Node

Date: Mon May 06 09:40:28 CEST 2024
User: Laser008
Spectrometer: MAYP115816
Trigger mode: 0
Integration Time (sec): 2.000000E-1
Scans to average: 10
Electric dark correction enabled: true
Nonlinearity correction enabled: true
Boxcar width: 5
XAxis mode: Wavelengths
Number of Pixels in Spectrum: 2068
>>>>>Begin Spectral Data<<<<<
198.914	-1.88
199.384	-1.74
199.855	-1.6
200.325	-1.47
200.796	-1.39
201.266	-1.34
201.737	-1.27
202.207	-1.21
202.677	-1.15
203.147	-1.11
203.618	-1.08
204.088	-1.05
204.558	-1.03
205.028	-1.02
205.498	-1.02
205.968	-1.02
206.439	-1.01
206.909	-1.01
207.379	-1.01
207.849	-1.01
208.319	-1
208.789	-1
209.258	-1
209.728	-0.99
210.198	-0.99
210.668	-0.99
211.138	-0.99
211.608	-0.99
212.077	-0.99
212.547	-0.99
213.017	-0.99
213.486	-0.99
213.956	-0.99
214.426	-0.99
214.895	-0.99
215.365	-0.98
215.834	-0.98
216.304	-0.98
216.773	-0.98
217.243	-0.98
217.712	-0.97
218.181	-0.97
218.651	-0.97
219.12	-0.97
219.589	-0.96
220.058	-0.96
220.528	-0.96
220.997	-0.96
221.466	-0.96
221.935	-0.95
222.404	-0.95
222.873	-0.94
223.342	-0.94
223.812	-0.93
224.281	-0.92
224.749	-0.91
225.218	-0.9
225.687	-0.89
226.156	-0.88
226.625	-0.86
227.094	-0.85
227.563	-0.83
228.031	-0.81
228.5	-0.79
228.969	-0.77
229.438	-0.74
229.906	-0.71
230.375	-0.68
230.844	-0.64
231.312	-0.6
231.781	-0.56
232.249	-0.51
232.718	-0.47
233.186	-0.42
233.655	-0.37
234.123	-0.33
234.591	-0.28
235.06	-0.23
235.528	-0.19
235.996	-0.14
236.465	-0.1
236.933	-0.06
237.401	-0.02
237.869	0.02
238.337	0.05
238.805	0.09
239.274	0.12
239.742	0.15
240.21	0.17
240.678	0.2
241.146	0.22
241.614	0.25
242.081	0.27
242.549	0.29
243.017	0.3
243.485	0.32
243.953	0.34
244.421	0.35
244.888	0.37
245.356	0.38
245.824	0.39
246.291	0.4
246.759	0.41
247.227	0.42
247.694	0.43
248.162	0.44
248.629	0.45
249.097	0.46
249.564	0.47
250.032	0.48
250.499	0.48
250.967	0.49
251.434	0.5
251.901	0.5
252.369	0.51
252.836	0.52
253.303	0.52
253.77	0.53
254.237	0.53
254.705	0.53
255.172	0.54
255.639	0.54
256.106	0.55
256.573	0.55
257.04	0.55
257.507	0.56
257.974	0.56
258.441	0.56
258.908	0.56
259.375	0.56
259.841	0.57
260.308	0.57
260.775	0.57
261.242	0.57
261.709	0.57
262.175	0.57
262.642	0.57
263.109	0.57
263.575	0.57
264.042	0.57
264.508	0.57
264.975	0.57
265.441	0.57
265.908	0.57
266.374	0.57
266.841	0.57
267.307	0.57
267.773	0.57
268.24	0.57
268.706	0.57
269.172	0.57
269.639	0.56
270.105	0.56
270.571	0.56
271.037	0.56
271.503	0.56
271.969	0.55
272.435	0.55
272.902	0.55
273.368	0.55
273.834	0.55
274.3	0.54
274.765	0.54
275.231	0.54
275.697	0.54
276.163	0.54
276.629	0.53
277.095	0.53
277.56	0.53
278.026	0.52
278.492	0.52
278.958	0.52
279.423	0.52
279.889	0.51
280.354	0.51
280.82	0.51
281.286	0.51
281.751	0.5
282.217	0.5
282.682	0.5
283.147	0.5
283.613	0.5
284.078	0.5
284.544	0.49
285.009	0.49
285.474	0.49
285.939	0.49
286.405	0.48
286.87	0.48
287.335	0.48
287.8	0.48
288.265	0.48
288.73	0.47
289.195	0.47
289.66	0.47
290.125	0.47
290.59	0.47
291.055	0.47
291.52	0.46
291.985	0.46
292.45	0.46
292.915	0.46
293.38	0.46
293.844	0.46
294.309	0.46
294.774	0.46
295.239	0.45
295.703	0.45
296.168	0.45
296.632	0.45
297.097	0.45
297.562	0.45
298.026	0.45
298.491	0.45
298.955	0.45
299.419	0.45
299.884	0.45
300.348	0.45
300.813	0.45
301.277	0.45
301.741	0.45
302.205	0.44
302.67	0.44
303.134	0.44
303.598	0.44
304.062	0.44
304.526	0.44
304.99	0.44
305.454	0.44
305.919	0.44
306.383	0.44
306.847	0.44
307.31	0.44
307.774	0.44
308.238	0.44
308.702	0.44
309.166	0.44
309.63	0.44
310.094	0.44
310.557	0.44
311.021	0.44
311.485	0.44
311.948	0.44
312.412	0.44
312.876	0.44
313.339	0.44
313.803	0.44
314.266	0.44
314.73	0.43
315.193	0.43
315.657	0.43
316.12	0.43
316.584	0.43
317.047	0.43
317.51	0.43
317.973	0.43
318.437	0.43
318.9	0.43
319.363	0.43
319.826	0.43
320.29	0.43
320.753	0.43
321.216	0.43
321.679	0.43
322.142	0.43
322.605	0.43
323.068	0.43
323.531	0.43
323.994	0.43
324.457	0.42
324.92	0.42
325.382	0.42
325.845	0.42
326.308	0.42
326.771	0.42
327.233	0.42
327.696	0.42
328.159	0.42
328.622	0.42
329.084	0.42
329.547	0.42
330.009	0.42
330.472	0.42
330.934	0.42
331.397	0.42
331.859	0.42
332.322	0.42
332.784	0.42
333.246	0.42
333.709	0.41
334.171	0.41
334.633	0.41
335.096	0.41
335.558	0.41
336.02	0.41
336.482	0.41
336.944	0.41
337.406	0.41
337.868	0.41
338.331	0.41
338.793	0.41
339.255	0.41
339.717	0.41
340.178	0.41
340.64	0.41
341.102	0.41
341.564	0.41
342.026	0.41
342.488	0.4
342.949	0.4
343.411	0.4
343.873	0.4
344.335	0.4
344.796	0.4
345.258	0.4
345.719	0.4
346.181	0.4
346.643	0.4
347.104	0.4
347.566	0.4
348.027	0.4
348.488	0.4
348.95	0.4
349.411	0.4
349.873	0.4
350.334	0.4
350.795	0.39
351.256	0.39
351.718	0.39
352.179	0.39
352.64	0.39
353.101	0.39
353.562	0.39
354.023	0.39
354.484	0.39
354.945	0.39
355.406	0.39
355.867	0.39
356.328	0.38
356.789	0.38
357.25	0.38
357.711	0.38
358.172	0.38
358.633	0.38
359.093	0.39
359.554	0.39
360.015	0.39
360.476	0.39
360.936	0.39
361.397	0.39
361.858	0.39
362.318	0.39
362.779	0.39
363.239	0.39
363.7	0.39
364.16	0.39
364.621	0.39
365.081	0.39
365.541	0.39
366.002	0.39
366.462	0.39
366.922	0.39
367.383	0.39
367.843	0.39
368.303	0.39
368.763	0.39
369.223	0.39
369.684	0.39
370.144	0.39
370.604	0.39
371.064	0.39
371.524	0.38
371.984	0.38
372.444	0.38
372.904	0.38
373.363	0.38
373.823	0.38
374.283	0.38
374.743	0.38
375.203	0.38
375.663	0.38
376.122	0.38
376.582	0.39
377.042	0.39
377.501	0.39
377.961	0.39
378.42	0.39
378.88	0.39
379.34	0.39
379.799	0.39
380.259	0.39
380.718	0.39
381.177	0.39
381.637	0.39
382.096	0.39
382.555	0.39
383.015	0.39
383.474	0.39
383.933	0.39
384.393	0.39
384.852	0.39
385.311	0.39
385.77	0.39
386.229	0.39
386.688	0.39
387.147	0.39
387.606	0.39
388.065	0.39
388.524	0.39
388.983	0.39
389.442	0.39
389.901	0.39
390.36	0.39
390.819	0.39
391.277	0.39
391.736	0.39
392.195	0.39
392.654	0.39
393.112	0.39
393.571	0.39
394.03	0.39
394.488	0.39
394.947	0.39
395.405	0.39
395.864	0.39
396.322	0.39
396.781	0.39
397.239	0.39
397.698	0.39
398.156	0.39
398.614	0.39
399.073	0.39
399.531	0.39
399.989	0.39
400.447	0.39
400.905	0.39
401.364	0.39
401.822	0.39
402.28	0.38
402.738	0.38
403.196	0.38
403.654	0.38
404.112	0.38
404.57	0.38
405.028	0.38
405.486	0.38
405.944	0.38
406.402	0.38
406.859	0.38
407.317	0.38
407.775	0.38
408.233	0.38
408.691	0.38
409.148	0.38
409.606	0.38
410.064	0.38
410.521	0.38
410.979	0.38
411.436	0.38
411.894	0.38
412.351	0.38
412.809	0.38
413.266	0.38
413.724	0.38
414.181	0.38
414.638	0.38
415.096	0.38
415.553	0.38
416.01	0.38
416.467	0.38
416.925	0.38
417.382	0.38
417.839	0.38
418.296	0.38
418.753	0.38
419.21	0.38
419.667	0.38
420.124	0.38
420.581	0.38
421.038	0.38
421.495	0.38
421.952	0.38
422.409	0.38
422.866	0.38
423.322	0.38
423.779	0.38
424.236	0.38
424.693	0.38
425.149	0.38
425.606	0.38
426.063	0.37
426.519	0.37
426.976	0.37
427.433	0.37
427.889	0.38
428.346	0.38
428.802	0.38
429.258	0.38
429.715	0.38
430.171	0.38
430.628	0.38
431.084	0.38
431.54	0.38
431.997	0.38
432.453	0.38
432.909	0.37
433.365	0.37
433.821	0.37
434.277	0.37
434.734	0.37
435.19	0.37
435.646	0.37
436.102	0.37
436.558	0.37
437.014	0.37
437.47	0.37
437.925	0.37
438.381	0.37
438.837	0.37
439.293	0.37
439.749	0.37
440.205	0.37
440.66	0.37
441.116	0.37
441.572	0.37
442.027	0.37
442.483	0.37
442.939	0.37
443.394	0.37
443.85	0.37
444.305	0.37
444.761	0.37
445.216	0.37
445.672	0.37
446.127	0.37
446.582	0.37
447.038	0.37
447.493	0.37
447.948	0.37
448.403	0.37
448.859	0.37
449.314	0.37
449.769	0.37
450.224	0.37
450.679	0.37
451.134	0.36
451.589	0.36
452.044	0.36
452.499	0.36
452.954	0.36
453.409	0.36
453.864	0.36
454.319	0.36
454.774	0.36
455.229	0.36
455.684	0.36
456.138	0.36
456.593	0.36
457.048	0.36
457.503	0.36
457.957	0.36
458.412	0.36
458.866	0.36
459.321	0.36
459.776	0.36
460.23	0.35
460.685	0.35
461.139	0.35
461.593	0.35
462.048	0.35
462.502	0.35
462.957	0.35
463.411	0.35
463.865	0.35
464.319	0.35
464.774	0.35
465.228	0.35
465.682	0.35
466.136	0.35
466.59	0.35
467.044	0.35
467.499	0.35
467.953	0.35
468.407	0.35
468.861	0.35
469.315	0.34
469.768	0.34
470.222	0.34
470.676	0.34
471.13	0.34
471.584	0.34
472.038	0.34
472.491	0.34
472.945	0.34
473.399	0.34
473.852	0.34
474.306	0.34
474.76	0.34
475.213	0.34
475.667	0.34
476.12	0.34
476.574	0.34
477.027	0.34
477.481	0.35
477.934	0.35
478.388	0.34
478.841	0.34
479.294	0.34
479.748	0.35
480.201	0.35
480.654	0.35
481.107	0.35
481.561	0.35
482.014	0.35
482.467	0.35
482.92	0.35
483.373	0.35
483.826	0.35
484.279	0.36
484.732	0.36
485.185	0.36
485.638	0.36
486.091	0.36
486.544	0.36
486.997	0.36
487.449	0.36
487.902	0.36
488.355	0.36
488.808	0.36
489.26	0.35
489.713	0.35
490.166	0.35
490.618	0.35
491.071	0.35
491.523	0.35
491.976	0.35
492.429	0.35
492.881	0.35
493.333	0.35
493.786	0.35
494.238	0.36
494.691	0.36
495.143	0.36
495.595	0.36
496.048	0.36
496.5	0.36
496.952	0.36
497.404	0.36
497.856	0.36
498.309	0.36
498.761	0.36
499.213	0.36
499.665	0.37
500.117	0.37
500.569	0.37
501.021	0.37
501.473	0.37
501.925	0.37
502.377	0.37
502.828	0.38
503.28	0.38
503.732	0.38
504.184	0.38
504.636	0.38
505.087	0.38
505.539	0.38
505.991	0.38
506.442	0.38
506.894	0.38
507.345	0.38
507.797	0.38
508.249	0.38
508.7	0.38
509.151	0.38
509.603	0.38
510.054	0.39
510.506	0.39
510.957	0.39
511.408	0.39
511.86	0.39
512.311	0.39
512.762	0.39
513.213	0.39
513.665	0.39
514.116	0.39
514.567	0.39
515.018	0.39
515.469	0.39
515.92	0.39
516.371	0.39
516.822	0.39
517.273	0.39
517.724	0.39
518.175	0.39
518.626	0.39
519.076	0.39
519.527	0.39
519.978	0.39
520.429	0.38
520.88	0.38
521.33	0.38
521.781	0.38
522.232	0.38
522.682	0.38
523.133	0.38
523.583	0.38
524.034	0.38
524.484	0.39
524.935	0.39
525.385	0.4
525.836	0.4
526.286	0.41
526.736	0.41
527.187	0.42
527.637	0.42
528.087	0.42
528.538	0.42
528.988	0.43
529.438	0.43
529.888	0.43
530.338	0.43
530.788	0.43
531.238	0.43
531.688	0.44
532.139	0.44
532.589	0.44
533.038	0.44
533.488	0.44
533.938	0.44
534.388	0.44
534.838	0.45
535.288	0.45
535.738	0.45
536.187	0.45
536.637	0.45
537.087	0.45
537.537	0.45
537.986	0.45
538.436	0.46
538.885	0.46
539.335	0.46
539.785	0.46
540.234	0.46
540.684	0.46
541.133	0.46
541.582	0.46
542.032	0.46
542.481	0.46
542.931	0.47
543.38	0.47
543.829	0.47
544.278	0.47
544.728	0.47
545.177	0.47
545.626	0.47
546.075	0.48
546.524	0.48
546.973	0.48
547.422	0.48
547.871	0.48
548.32	0.48
548.769	0.48
549.218	0.48
549.667	0.48
550.116	0.48
550.565	0.48
551.014	0.48
551.463	0.48
551.911	0.48
552.36	0.49
552.809	0.49
553.258	0.49
553.706	0.49
554.155	0.49
554.603	0.49
555.052	0.49
555.501	0.49
555.949	0.49
556.398	0.49
556.846	0.49
557.294	0.49
557.743	0.49
558.191	0.49
558.64	0.49
559.088	0.49
559.536	0.5
559.985	0.5
560.433	0.5
560.881	0.5
561.329	0.5
561.777	0.51
562.225	0.51
562.674	0.51
563.122	0.51
563.57	0.51
564.018	0.51
564.466	0.51
564.914	0.51
565.362	0.51
565.809	0.51
566.257	0.51
566.705	0.51
567.153	0.52
567.601	0.52
568.048	0.52
568.496	0.53
568.944	0.53
569.392	0.54
569.839	0.54
570.287	0.54
570.734	0.55
571.182	0.55
571.63	0.55
572.077	0.56
572.525	0.56
572.972	0.56
573.419	0.56
573.867	0.56
574.314	0.56
574.761	0.57
575.209	0.57
575.656	0.57
576.103	0.57
576.551	0.58
576.998	0.58
577.445	0.58
577.892	0.58
578.339	0.58
578.786	0.58
579.233	0.58
579.68	0.58
580.127	0.58
580.574	0.58
581.021	0.58
581.468	0.58
581.915	0.58
582.362	0.58
582.809	0.58
583.255	0.58
583.702	0.58
584.149	0.57
584.596	0.57
585.042	0.57
585.489	0.57
585.936	0.57
586.382	0.57
586.829	0.57
587.275	0.57
587.722	0.56
588.168	0.56
588.615	0.56
589.061	0.55
589.508	0.55
589.954	0.55
590.4	0.55
590.847	0.55
591.293	0.55
591.739	0.55
592.185	0.55
592.632	0.55
593.078	0.55
593.524	0.55
593.97	0.54
594.416	0.54
594.862	0.54
595.308	0.54
595.754	0.54
596.2	0.54
596.646	0.54
597.092	0.54
597.538	0.54
597.984	0.54
598.43	0.54
598.876	0.54
599.321	0.54
599.767	0.54
600.213	0.54
600.659	0.54
601.104	0.53
601.55	0.53
601.995	0.53
602.441	0.53
602.887	0.52
603.332	0.52
603.778	0.52
604.223	0.52
604.668	0.52
605.114	0.52
605.559	0.52
606.005	0.52
606.45	0.52
606.895	0.52
607.341	0.52
607.786	0.52
608.231	0.51
608.676	0.51
609.121	0.51
609.566	0.5
610.012	0.5
610.457	0.5
610.902	0.5
611.347	0.49
611.792	0.49
612.237	0.49
612.682	0.49
613.127	0.49
613.571	0.49
614.016	0.49
614.461	0.49
614.906	0.49
615.351	0.48
615.795	0.48
616.24	0.48
616.685	0.47
617.129	0.47
617.574	0.47
618.019	0.46
618.463	0.46
618.908	0.46
619.352	0.46
619.797	0.46
620.241	0.46
620.686	0.45
621.13	0.45
621.574	0.45
622.019	0.45
622.463	0.45
622.907	0.45
623.352	0.45
623.796	0.45
624.24	0.44
624.684	0.44
625.128	0.44
625.572	0.44
626.016	0.44
626.461	0.44
626.905	0.43
627.349	0.43
627.793	0.43
628.236	0.43
628.68	0.43
629.124	0.43
629.568	0.43
630.012	0.42
630.456	0.42
630.9	0.42
631.343	0.42
631.787	0.42
632.231	0.41
632.674	0.41
633.118	0.41
633.562	0.41
634.005	0.41
634.449	0.41
634.892	0.41
635.336	0.41
635.779	0.4
636.223	0.4
636.666	0.4
637.109	0.4
637.553	0.4
637.996	0.4
638.439	0.4
638.883	0.4
639.326	0.4
639.769	0.4
640.212	0.4
640.655	0.4
641.099	0.4
641.542	0.4
641.985	0.4
642.428	0.4
642.871	0.4
643.314	0.4
643.757	0.4
644.2	0.4
644.643	0.39
645.085	0.39
645.528	0.39
645.971	0.4
646.414	0.4
646.857	0.4
647.299	0.4
647.742	0.4
648.185	0.4
648.627	0.4
649.07	0.4
649.513	0.4
649.955	0.4
650.398	0.4
650.84	0.4
651.283	0.4
651.725	0.4
652.168	0.4
652.61	0.41
653.052	0.41
653.495	0.4
653.937	0.33
654.379	0.29
654.821	0.29
655.264	0.29
655.706	0.3
656.148	0.3
656.59	0.3
657.032	0.3
657.474	0.3
657.916	0.3
658.358	0.3
658.8	0.36
659.242	0.42
659.684	0.42
660.126	0.42
660.568	0.42
661.01	0.42
661.452	0.42
661.894	0.42
662.335	0.43
662.777	0.43
663.219	0.43
663.661	0.43
664.102	0.43
664.544	0.43
664.985	0.43
665.427	0.43
665.869	0.43
666.31	0.44
666.752	0.44
667.193	0.44
667.634	0.44
668.076	0.44
668.517	0.44
668.959	0.44
669.4	0.45
669.841	0.45
670.282	0.45
670.724	0.45
671.165	0.46
671.606	0.46
672.047	0.46
672.488	0.46
672.929	0.46
673.37	0.46
673.811	0.46
674.252	0.46
674.693	0.46
675.134	0.46
675.575	0.47
676.016	0.47
676.457	0.47
676.898	0.47
677.339	0.47
677.78	0.47
678.22	0.47
678.661	0.47
679.102	0.47
679.542	0.48
679.983	0.48
680.424	0.48
680.864	0.48
681.305	0.48
681.745	0.48
682.186	0.48
682.626	0.48
683.067	0.49
683.507	0.49
683.948	0.49
684.388	0.49
684.828	0.49
685.269	0.49
685.709	0.5
686.149	0.5
686.589	0.5
687.029	0.5
687.47	0.5
687.91	0.5
688.35	0.5
688.79	0.5
689.23	0.5
689.67	0.51
690.11	0.51
690.55	0.51
690.99	0.51
691.43	0.51
691.87	0.51
692.31	0.51
692.749	0.52
693.189	0.52
693.629	0.52
694.069	0.52
694.508	0.52
694.948	0.52
695.388	0.53
695.827	0.53
696.267	0.53
696.706	0.53
697.146	0.53
697.586	0.53
698.025	0.53
698.464	0.53
698.904	0.54
699.343	0.54
699.783	0.54
700.222	0.54
700.661	0.54
701.101	0.54
701.54	0.54
701.979	0.54
702.418	0.54
702.857	0.54
703.297	0.54
703.736	0.54
704.175	0.54
704.614	0.55
705.053	0.55
705.492	0.55
705.931	0.55
706.37	0.55
706.809	0.55
707.248	0.55
707.687	0.55
708.125	0.56
708.564	0.56
709.003	0.56
709.442	0.56
709.88	0.56
710.319	0.56
710.758	0.56
711.196	0.56
711.635	0.56
712.074	0.56
712.512	0.56
712.951	0.56
713.389	0.56
713.828	0.56
714.266	0.56
714.705	0.56
715.143	0.56
715.581	0.56
716.02	0.56
716.458	0.56
716.896	0.56
717.334	0.56
717.773	0.56
718.211	0.56
718.649	0.56
719.087	0.56
719.525	0.56
719.963	0.56
720.401	0.56
720.839	0.56
721.277	0.56
721.715	0.56
722.153	0.56
722.591	0.56
723.029	0.56
723.467	0.56
723.905	0.56
724.342	0.56
724.78	0.56
725.218	0.56
725.656	0.56
726.093	0.56
726.531	0.56
726.969	0.56
727.406	0.56
727.844	0.56
728.281	0.56
728.719	0.56
729.156	0.56
729.594	0.56
730.031	0.56
730.469	0.56
730.906	0.56
731.343	0.57
731.781	0.57
732.218	0.57
732.655	0.57
733.092	0.57
733.53	0.57
733.967	0.57
734.404	0.57
734.841	0.57
735.278	0.57
735.715	0.56
736.152	0.56
736.589	0.56
737.026	0.56
737.463	0.56
737.9	0.56
738.337	0.56
738.774	0.56
739.211	0.55
739.647	0.55
740.084	0.55
740.521	0.55
740.958	0.55
741.394	0.55
741.831	0.54
742.268	0.54
742.704	0.54
743.141	0.54
743.577	0.53
744.014	0.53
744.45	0.53
744.887	0.53
745.323	0.53
745.76	0.52
746.196	0.52
746.632	0.52
747.069	0.52
747.505	0.52
747.941	0.52
748.378	0.52
748.814	0.52
749.25	0.52
749.686	0.52
750.122	0.52
750.558	0.53
750.994	0.53
751.43	0.53
751.866	0.53
752.302	0.53
752.738	0.53
753.174	0.53
753.61	0.53
754.046	0.53
754.482	0.53
754.918	0.53
755.354	0.53
755.789	0.53
756.225	0.53
756.661	0.53
757.096	0.53
757.532	0.53
757.968	0.53
758.403	0.53
758.839	0.53
759.274	0.53
759.71	0.52
760.145	0.52
760.581	0.52
761.016	0.51
761.452	0.51
761.887	0.51
762.322	0.5
762.758	0.5
763.193	0.5
763.628	0.5
764.063	0.49
764.499	0.49
764.934	0.48
765.369	0.48
765.804	0.48
766.239	0.47
766.674	0.47
767.109	0.47
767.544	0.46
767.979	0.45
768.414	0.45
768.849	0.45
769.284	0.44
769.719	0.44
770.154	0.44
770.588	0.43
771.023	0.42
771.458	0.42
771.893	0.41
772.327	0.41
772.762	0.4
773.197	0.39
773.631	0.39
774.066	0.38
774.5	0.37
774.935	0.37
775.369	0.36
775.804	0.35
776.238	0.34
776.673	0.34
777.107	0.33
777.541	0.32
777.976	0.31
778.41	0.3
778.844	0.29
779.279	0.29
779.713	0.28
780.147	0.27
780.581	0.26
781.015	0.25
781.449	0.23
781.883	0.22
782.317	0.2
782.751	0.18
783.185	0.17
783.619	0.15
784.053	0.13
784.487	0.11
784.921	0.09
785.355	0.07
785.789	0.06
786.223	0.04
786.656	0.03
787.09	0.01
787.524	0
787.957	-0.01
788.391	-0.02
788.825	-0.04
789.258	-0.04
789.692	-0.05
790.125	-0.05
790.559	-0.05
790.992	-0.06
791.426	-0.06
791.859	-0.06
792.293	-0.05
792.726	-0.04
793.159	-0.04
793.593	-0.04
794.026	-0.04
794.459	-0.04
794.892	-0.05
795.326	-0.05
795.759	-0.05
796.192	-0.05
796.625	-0.06
797.058	-0.06
797.491	-0.07
797.924	-0.08
798.357	-0.08
798.79	-0.08
799.223	-0.08
799.656	-0.08
800.089	-0.08
800.522	-0.09
800.955	-0.09
801.387	-0.09
801.82	-0.09
802.253	-0.09
802.686	-0.09
803.118	-0.09
803.551	-0.09
803.984	-0.08
804.416	-0.08
804.849	-0.07
805.281	-0.07
805.714	-0.07
806.146	-0.07
806.579	-0.07
807.011	-0.07
807.444	-0.07
807.876	-0.07
808.308	-0.07
808.741	-0.07
809.173	-0.08
809.605	-0.08
810.037	-0.08
810.47	-0.08
810.902	-0.09
811.334	-0.09
811.766	-0.08
812.198	-0.08
812.63	-0.08
813.062	-0.08
813.494	-0.08
813.926	-0.08
814.358	-0.08
814.79	-0.08
815.222	-0.07
815.654	-0.07
816.086	-0.07
816.518	-0.07
816.949	-0.07
817.381	-0.07
817.813	-0.06
818.245	-0.05
818.676	-0.03
819.108	-0.02
819.54	-0
819.971	0.01
820.403	0.03
820.834	0.05
821.266	0.08
821.697	0.1
822.129	0.12
822.56	0.14
822.991	0.15
823.423	0.17
823.854	0.18
824.286	0.2
824.717	0.21
825.148	0.23
825.579	0.25
826.01	0.26
826.442	0.27
826.873	0.28
827.304	0.29
827.735	0.3
828.166	0.31
828.597	0.32
829.028	0.33
829.459	0.33
829.89	0.34
830.321	0.34
830.752	0.35
831.183	0.36
831.613	0.36
832.044	0.37
832.475	0.37
832.906	0.38
833.336	0.38
833.767	0.39
834.198	0.39
834.628	0.39
835.059	0.4
835.49	0.4
835.92	0.4
836.351	0.4
836.781	0.41
837.212	0.41
837.642	0.41
838.072	0.41
838.503	0.41
838.933	0.41
839.364	0.41
839.794	0.41
840.224	0.42
840.654	0.42
841.085	0.42
841.515	0.42
841.945	0.42
842.375	0.42
842.805	0.42
843.235	0.42
843.665	0.42
844.095	0.42
844.525	0.42
844.955	0.42
845.385	0.42
845.815	0.42
846.245	0.42
846.675	0.42
847.105	0.42
847.534	0.42
847.964	0.42
848.394	0.42
848.824	0.43
849.253	0.43
849.683	0.43
850.112	0.43
850.542	0.43
850.972	0.43
851.401	0.43
851.831	0.43
852.26	0.43
852.69	0.43
853.119	0.43
853.548	0.43
853.978	0.43
854.407	0.43
854.836	0.43
855.266	0.43
855.695	0.43
856.124	0.43
856.553	0.43
856.983	0.43
857.412	0.43
857.841	0.43
858.27	0.43
858.699	0.43
859.128	0.42
859.557	0.42
859.986	0.42
860.415	0.42
860.844	0.42
861.273	0.42
861.702	0.42
862.13	0.42
862.559	0.42
862.988	0.42
863.417	0.42
863.845	0.42
864.274	0.42
864.703	0.42
865.131	0.42
865.56	0.42
865.989	0.42
866.417	0.42
866.846	0.42
867.274	0.42
867.703	0.42
868.131	0.42
868.559	0.42
868.988	0.42
869.416	0.41
869.844	0.41
870.273	0.41
870.701	0.41
871.129	0.41
871.557	0.41
871.986	0.41
872.414	0.41
872.842	0.41
873.27	0.41
873.698	0.41
874.126	0.41
874.554	0.41
874.982	0.4
875.41	0.4
875.838	0.4
876.266	0.4
876.694	0.4
877.122	0.4
877.549	0.4
877.977	0.4
878.405	0.4
878.833	0.4
879.26	0.4
879.688	0.4
880.116	0.4
880.543	0.4
