Data from redip-kinet-2-5a_Absorbance__21__00021.txt Node

Date: Fri Apr 12 13:46:12 CEST 2024
User: Laser008
Spectrometer: MAYP115816
Trigger mode: 0
Integration Time (sec): 2.000000E-1
Scans to average: 10
Electric dark correction enabled: true
Nonlinearity correction enabled: true
Boxcar width: 5
XAxis mode: Wavelengths
Number of Pixels in Spectrum: 2068
>>>>>Begin Spectral Data<<<<<
198.914	-2.51
199.384	-2.35
199.855	-2.21
200.325	-2.1
200.796	-2.02
201.266	-1.97
201.737	-1.89
202.207	-1.83
202.677	-1.78
203.147	-1.73
203.618	-1.7
204.088	-1.68
204.558	-1.66
205.028	-1.64
205.498	-1.64
205.968	-1.64
206.439	-1.63
206.909	-1.63
207.379	-1.63
207.849	-1.62
208.319	-1.62
208.789	-1.62
209.258	-1.61
209.728	-1.61
210.198	-1.61
210.668	-1.61
211.138	-1.61
211.608	-1.6
212.077	-1.6
212.547	-1.6
213.017	-1.6
213.486	-1.6
213.956	-1.6
214.426	-1.6
214.895	-1.6
215.365	-1.59
215.834	-1.59
216.304	-1.59
216.773	-1.59
217.243	-1.59
217.712	-1.58
218.181	-1.58
218.651	-1.58
219.12	-1.58
219.589	-1.58
220.058	-1.57
220.528	-1.57
220.997	-1.57
221.466	-1.56
221.935	-1.56
222.404	-1.55
222.873	-1.55
223.342	-1.54
223.812	-1.53
224.281	-1.53
224.749	-1.52
225.218	-1.51
225.687	-1.5
226.156	-1.49
226.625	-1.48
227.094	-1.46
227.563	-1.44
228.031	-1.42
228.5	-1.4
228.969	-1.38
229.438	-1.35
229.906	-1.32
230.375	-1.28
230.844	-1.25
231.312	-1.21
231.781	-1.16
232.249	-1.12
232.718	-1.07
233.186	-1.02
233.655	-0.97
234.123	-0.92
234.591	-0.87
235.06	-0.82
235.528	-0.78
235.996	-0.73
236.465	-0.68
236.933	-0.64
237.401	-0.59
237.869	-0.55
238.337	-0.51
238.805	-0.47
239.274	-0.44
239.742	-0.41
240.21	-0.37
240.678	-0.34
241.146	-0.32
241.614	-0.29
242.081	-0.27
242.549	-0.24
243.017	-0.22
243.485	-0.2
243.953	-0.18
244.421	-0.17
244.888	-0.15
245.356	-0.13
245.824	-0.12
246.291	-0.11
246.759	-0.09
247.227	-0.08
247.694	-0.07
248.162	-0.06
248.629	-0.05
249.097	-0.04
249.564	-0.03
250.032	-0.02
250.499	-0.02
250.967	-0.01
251.434	-0
251.901	0
252.369	0.01
252.836	0.02
253.303	0.02
253.77	0.03
254.237	0.03
254.705	0.04
255.172	0.04
255.639	0.05
256.106	0.05
256.573	0.06
257.04	0.06
257.507	0.06
257.974	0.06
258.441	0.07
258.908	0.07
259.375	0.07
259.841	0.07
260.308	0.08
260.775	0.08
261.242	0.08
261.709	0.08
262.175	0.08
262.642	0.08
263.109	0.08
263.575	0.08
264.042	0.09
264.508	0.09
264.975	0.09
265.441	0.09
265.908	0.09
266.374	0.09
266.841	0.09
267.307	0.09
267.773	0.09
268.24	0.09
268.706	0.09
269.172	0.09
269.639	0.09
270.105	0.09
270.571	0.09
271.037	0.09
271.503	0.08
271.969	0.08
272.435	0.08
272.902	0.08
273.368	0.08
273.834	0.08
274.3	0.08
274.765	0.08
275.231	0.08
275.697	0.08
276.163	0.08
276.629	0.07
277.095	0.07
277.56	0.07
278.026	0.07
278.492	0.07
278.958	0.07
279.423	0.07
279.889	0.07
280.354	0.06
280.82	0.06
281.286	0.06
281.751	0.06
282.217	0.06
282.682	0.06
283.147	0.06
283.613	0.07
284.078	0.06
284.544	0.06
285.009	0.06
285.474	0.06
285.939	0.06
286.405	0.06
286.87	0.06
287.335	0.06
287.8	0.06
288.265	0.06
288.73	0.06
289.195	0.06
289.66	0.06
290.125	0.06
290.59	0.06
291.055	0.06
291.52	0.06
291.985	0.06
292.45	0.06
292.915	0.06
293.38	0.06
293.844	0.06
294.309	0.06
294.774	0.06
295.239	0.06
295.703	0.06
296.168	0.05
296.632	0.06
297.097	0.05
297.562	0.05
298.026	0.05
298.491	0.05
298.955	0.05
299.419	0.05
299.884	0.05
300.348	0.05
300.813	0.05
301.277	0.05
301.741	0.05
302.205	0.06
302.67	0.06
303.134	0.06
303.598	0.06
304.062	0.06
304.526	0.06
304.99	0.06
305.454	0.06
305.919	0.06
306.383	0.06
306.847	0.06
307.31	0.06
307.774	0.06
308.238	0.06
308.702	0.06
309.166	0.06
309.63	0.06
310.094	0.05
310.557	0.05
311.021	0.05
311.485	0.05
311.948	0.05
312.412	0.05
312.876	0.05
313.339	0.05
313.803	0.05
314.266	0.05
314.73	0.05
315.193	0.05
315.657	0.05
316.12	0.05
316.584	0.05
317.047	0.05
317.51	0.05
317.973	0.05
318.437	0.05
318.9	0.05
319.363	0.05
319.826	0.05
320.29	0.05
320.753	0.05
321.216	0.05
321.679	0.05
322.142	0.05
322.605	0.05
323.068	0.05
323.531	0.05
323.994	0.05
324.457	0.05
324.92	0.05
325.382	0.05
325.845	0.05
326.308	0.05
326.771	0.04
327.233	0.04
327.696	0.04
328.159	0.04
328.622	0.04
329.084	0.04
329.547	0.04
330.009	0.04
330.472	0.04
330.934	0.04
331.397	0.04
331.859	0.04
332.322	0.04
332.784	0.04
333.246	0.04
333.709	0.04
334.171	0.04
334.633	0.04
335.096	0.04
335.558	0.04
336.02	0.04
336.482	0.04
336.944	0.04
337.406	0.04
337.868	0.04
338.331	0.04
338.793	0.04
339.255	0.04
339.717	0.03
340.178	0.03
340.64	0.03
341.102	0.03
341.564	0.03
342.026	0.03
342.488	0.03
342.949	0.03
343.411	0.03
343.873	0.03
344.335	0.03
344.796	0.03
345.258	0.03
345.719	0.03
346.181	0.03
346.643	0.03
347.104	0.03
347.566	0.03
348.027	0.03
348.488	0.03
348.95	0.02
349.411	0.02
349.873	0.02
350.334	0.02
350.795	0.02
351.256	0.02
351.718	0.02
352.179	0.02
352.64	0.02
353.101	0.02
353.562	0.02
354.023	0.01
354.484	0.01
354.945	0.01
355.406	0.01
355.867	0.01
356.328	0.01
356.789	0.01
357.25	0.01
357.711	0.01
358.172	0.01
358.633	0.01
359.093	0.01
359.554	0.01
360.015	0.01
360.476	0.01
360.936	0.02
361.397	0.02
361.858	0.02
362.318	0.02
362.779	0.02
363.239	0.02
363.7	0.02
364.16	0.02
364.621	0.02
365.081	0.02
365.541	0.02
366.002	0.02
366.462	0.01
366.922	0.01
367.383	0.01
367.843	0.01
368.303	0.01
368.763	0.01
369.223	0.01
369.684	0.01
370.144	0.01
370.604	0.01
371.064	0.01
371.524	0.01
371.984	0.01
372.444	0.01
372.904	0.01
373.363	0.01
373.823	0.01
374.283	0.01
374.743	0.01
375.203	0.01
375.663	0.01
376.122	0.01
376.582	0.01
377.042	0.01
377.501	0.01
377.961	0.01
378.42	0.01
378.88	0.01
379.34	0.01
379.799	0.01
380.259	0.01
380.718	0.01
381.177	0.01
381.637	0.01
382.096	0.01
382.555	0.01
383.015	0.01
383.474	0.01
383.933	0.01
384.393	0.01
384.852	0.01
385.311	0.01
385.77	0.01
386.229	0.01
386.688	0.01
387.147	0.01
387.606	0.01
388.065	0.01
388.524	0.01
388.983	0.01
389.442	0.01
389.901	0.01
390.36	0.01
390.819	0.01
391.277	0.01
391.736	0.01
392.195	0.02
392.654	0.02
393.112	0.02
393.571	0.02
394.03	0.02
394.488	0.02
394.947	0.02
395.405	0.01
395.864	0.01
396.322	0.01
396.781	0.02
397.239	0.02
397.698	0.02
398.156	0.02
398.614	0.02
399.073	0.02
399.531	0.02
399.989	0.02
400.447	0.02
400.905	0.01
401.364	0.01
401.822	0.01
402.28	0.01
402.738	0.01
403.196	0.01
403.654	0.01
404.112	0.01
404.57	0.01
405.028	0.01
405.486	0.01
405.944	0.01
406.402	0.01
406.859	0.01
407.317	0.01
407.775	0.01
408.233	0.01
408.691	0.01
409.148	0.01
409.606	0.01
410.064	0.01
410.521	0.01
410.979	0.01
411.436	0.01
411.894	0.01
412.351	0
412.809	0
413.266	0
413.724	0
414.181	0
414.638	0
415.096	0
415.553	0
416.01	0
416.467	0
416.925	0
417.382	0
417.839	0
418.296	0
418.753	0
419.21	0
419.667	0
420.124	0.01
420.581	0.01
421.038	0.01
421.495	0.01
421.952	0.01
422.409	0.01
422.866	0.01
423.322	0.01
423.779	0.01
424.236	0.01
424.693	0.01
425.149	0.01
425.606	0
426.063	0
426.519	0
426.976	0
427.433	0
427.889	0
428.346	0.01
428.802	0.01
429.258	0.01
429.715	0.01
430.171	0.01
430.628	0.01
431.084	0.01
431.54	0.01
431.997	0.01
432.453	0
432.909	0
433.365	0
433.821	0
434.277	0
434.734	0
435.19	0
435.646	0
436.102	0
436.558	0
437.014	0
437.47	0
437.925	0
438.381	-0
438.837	-0
439.293	-0
439.749	-0
440.205	-0
440.66	-0
441.116	-0
441.572	-0
442.027	-0
442.483	-0
442.939	0
443.394	0
443.85	0
444.305	0
444.761	0
445.216	0
445.672	0
446.127	0
446.582	0
447.038	0
447.493	0
447.948	-0
448.403	-0
448.859	-0
449.314	-0
449.769	-0
450.224	-0
450.679	-0
451.134	-0
451.589	-0
452.044	-0.01
452.499	-0.01
452.954	-0.01
453.409	-0.01
453.864	-0.01
454.319	-0.01
454.774	-0.01
455.229	-0.01
455.684	-0.01
456.138	-0.01
456.593	-0.01
457.048	-0.01
457.503	-0.01
457.957	-0.01
458.412	-0.01
458.866	-0.01
459.321	-0.01
459.776	-0.01
460.23	-0.02
460.685	-0.02
461.139	-0.02
461.593	-0.02
462.048	-0.02
462.502	-0.02
462.957	-0.02
463.411	-0.02
463.865	-0.02
464.319	-0.02
464.774	-0.02
465.228	-0.02
465.682	-0.02
466.136	-0.02
466.59	-0.02
467.044	-0.02
467.499	-0.02
467.953	-0.03
468.407	-0.03
468.861	-0.03
469.315	-0.03
469.768	-0.04
470.222	-0.04
470.676	-0.04
471.13	-0.04
471.584	-0.04
472.038	-0.04
472.491	-0.04
472.945	-0.04
473.399	-0.04
473.852	-0.04
474.306	-0.03
474.76	-0.03
475.213	-0.03
475.667	-0.03
476.12	-0.03
476.574	-0.03
477.027	-0.03
477.481	-0.03
477.934	-0.03
478.388	-0.03
478.841	-0.04
479.294	-0.04
479.748	-0.03
480.201	-0.03
480.654	-0.03
481.107	-0.03
481.561	-0.03
482.014	-0.03
482.467	-0.03
482.92	-0.03
483.373	-0.03
483.826	-0.02
484.279	-0.02
484.732	-0.02
485.185	-0.02
485.638	-0.02
486.091	-0.01
486.544	-0.01
486.997	-0.02
487.449	-0.02
487.902	-0.02
488.355	-0.02
488.808	-0.03
489.26	-0.03
489.713	-0.04
490.166	-0.04
490.618	-0.04
491.071	-0.04
491.523	-0.04
491.976	-0.04
492.429	-0.04
492.881	-0.04
493.333	-0.04
493.786	-0.04
494.238	-0.04
494.691	-0.04
495.143	-0.04
495.595	-0.04
496.048	-0.04
496.5	-0.04
496.952	-0.04
497.404	-0.04
497.856	-0.04
498.309	-0.04
498.761	-0.04
499.213	-0.05
499.665	-0.05
500.117	-0.05
500.569	-0.05
501.021	-0.05
501.473	-0.05
501.925	-0.05
502.377	-0.05
502.828	-0.05
503.28	-0.04
503.732	-0.04
504.184	-0.05
504.636	-0.05
505.087	-0.05
505.539	-0.05
505.991	-0.05
506.442	-0.05
506.894	-0.05
507.345	-0.05
507.797	-0.05
508.249	-0.06
508.7	-0.06
509.151	-0.06
509.603	-0.06
510.054	-0.06
510.506	-0.06
510.957	-0.06
511.408	-0.06
511.86	-0.06
512.311	-0.07
512.762	-0.07
513.213	-0.07
513.665	-0.07
514.116	-0.07
514.567	-0.07
515.018	-0.07
515.469	-0.08
515.92	-0.08
516.371	-0.08
516.822	-0.08
517.273	-0.08
517.724	-0.08
518.175	-0.08
518.626	-0.08
519.076	-0.08
519.527	-0.08
519.978	-0.09
520.429	-0.09
520.88	-0.09
521.33	-0.1
521.781	-0.1
522.232	-0.1
522.682	-0.11
523.133	-0.11
523.583	-0.11
524.034	-0.12
524.484	-0.12
524.935	-0.11
525.385	-0.11
525.836	-0.11
526.286	-0.1
526.736	-0.1
527.187	-0.09
527.637	-0.09
528.087	-0.08
528.538	-0.08
528.988	-0.07
529.438	-0.07
529.888	-0.07
530.338	-0.07
530.788	-0.06
531.238	-0.06
531.688	-0.06
532.139	-0.06
532.589	-0.06
533.038	-0.06
533.488	-0.05
533.938	-0.05
534.388	-0.05
534.838	-0.05
535.288	-0.05
535.738	-0.05
536.187	-0.05
536.637	-0.05
537.087	-0.04
537.537	-0.04
537.986	-0.04
538.436	-0.04
538.885	-0.04
539.335	-0.04
539.785	-0.04
540.234	-0.04
540.684	-0.04
541.133	-0.04
541.582	-0.04
542.032	-0.04
542.481	-0.04
542.931	-0.04
543.38	-0.04
543.829	-0.03
544.278	-0.03
544.728	-0.03
545.177	-0.03
545.626	-0.03
546.075	-0.03
546.524	-0.03
546.973	-0.03
547.422	-0.03
547.871	-0.03
548.32	-0.03
548.769	-0.03
549.218	-0.03
549.667	-0.03
550.116	-0.03
550.565	-0.03
551.014	-0.03
551.463	-0.03
551.911	-0.03
552.36	-0.03
552.809	-0.03
553.258	-0.03
553.706	-0.02
554.155	-0.02
554.603	-0.02
555.052	-0.02
555.501	-0.03
555.949	-0.03
556.398	-0.03
556.846	-0.03
557.294	-0.03
557.743	-0.03
558.191	-0.03
558.64	-0.03
559.088	-0.03
559.536	-0.03
559.985	-0.03
560.433	-0.02
560.881	-0.02
561.329	-0.02
561.777	-0.02
562.225	-0.01
562.674	-0.01
563.122	-0.01
563.57	-0.02
564.018	-0.02
564.466	-0.02
564.914	-0.02
565.362	-0.02
565.809	-0.02
566.257	-0.01
566.705	-0.01
567.153	-0.01
567.601	-0
568.048	0
568.496	0.01
568.944	0.01
569.392	0.02
569.839	0.03
570.287	0.03
570.734	0.04
571.182	0.04
571.63	0.04
572.077	0.05
572.525	0.05
572.972	0.05
573.419	0.06
573.867	0.06
574.314	0.06
574.761	0.06
575.209	0.06
575.656	0.07
576.103	0.07
576.551	0.07
576.998	0.07
577.445	0.07
577.892	0.07
578.339	0.07
578.786	0.07
579.233	0.07
579.68	0.08
580.127	0.08
580.574	0.08
581.021	0.08
581.468	0.07
581.915	0.07
582.362	0.07
582.809	0.08
583.255	0.08
583.702	0.08
584.149	0.08
584.596	0.07
585.042	0.07
585.489	0.07
585.936	0.07
586.382	0.07
586.829	0.07
587.275	0.07
587.722	0.07
588.168	0.06
588.615	0.06
589.061	0.06
589.508	0.06
589.954	0.06
590.4	0.06
590.847	0.06
591.293	0.06
591.739	0.06
592.185	0.06
592.632	0.06
593.078	0.06
593.524	0.06
593.97	0.06
594.416	0.06
594.862	0.06
595.308	0.06
595.754	0.06
596.2	0.06
596.646	0.06
597.092	0.06
597.538	0.06
597.984	0.06
598.43	0.07
598.876	0.07
599.321	0.07
599.767	0.07
600.213	0.07
600.659	0.07
601.104	0.07
601.55	0.07
601.995	0.06
602.441	0.06
602.887	0.06
603.332	0.06
603.778	0.06
604.223	0.06
604.668	0.06
605.114	0.06
605.559	0.07
606.005	0.07
606.45	0.07
606.895	0.07
607.341	0.07
607.786	0.07
608.231	0.06
608.676	0.06
609.121	0.06
609.566	0.06
610.012	0.06
610.457	0.06
610.902	0.06
611.347	0.06
611.792	0.06
612.237	0.06
612.682	0.06
613.127	0.06
613.571	0.06
614.016	0.06
614.461	0.06
614.906	0.06
615.351	0.05
615.795	0.05
616.24	0.05
616.685	0.05
617.129	0.05
617.574	0.04
618.019	0.04
618.463	0.04
618.908	0.03
619.352	0.03
619.797	0.03
620.241	0.03
620.686	0.04
621.13	0.04
621.574	0.04
622.019	0.04
622.463	0.04
622.907	0.04
623.352	0.04
623.796	0.04
624.24	0.04
624.684	0.04
625.128	0.03
625.572	0.03
626.016	0.03
626.461	0.03
626.905	0.03
627.349	0.03
627.793	0.03
628.236	0.03
628.68	0.03
629.124	0.02
629.568	0.02
630.012	0.02
630.456	0.02
630.9	0.02
631.343	0.02
631.787	0.01
632.231	0.01
632.674	0.01
633.118	0.01
633.562	0.01
634.005	0.01
634.449	0.01
634.892	0.01
635.336	0.01
635.779	0.01
636.223	0.01
636.666	0.01
637.109	0.01
637.553	0.01
637.996	0.01
638.439	0.01
638.883	0.01
639.326	0.01
639.769	0.01
640.212	0.01
640.655	0.01
641.099	0.01
641.542	0.01
641.985	0.01
642.428	0.01
642.871	0.01
643.314	0.01
643.757	0.01
644.2	0.01
644.643	0.01
645.085	0.01
645.528	0.02
645.971	0.02
646.414	0.02
646.857	0.02
647.299	0.02
647.742	0.03
648.185	0.03
648.627	0.03
649.07	0.03
649.513	0.03
649.955	0.03
650.398	0.03
650.84	0.03
651.283	0.03
651.725	0.03
652.168	0.03
652.61	0.03
653.052	0.04
653.495	0.04
653.937	0.04
654.379	0.04
654.821	0.05
655.264	0.05
655.706	0.05
656.148	0.05
656.59	0.05
657.032	0.05
657.474	0.05
657.916	0.05
658.358	0.05
658.8	0.05
659.242	0.05
659.684	0.04
660.126	0.04
660.568	0.04
661.01	0.04
661.452	0.04
661.894	0.04
662.335	0.04
662.777	0.04
663.219	0.04
663.661	0.04
664.102	0.04
664.544	0.04
664.985	0.05
665.427	0.05
665.869	0.05
666.31	0.05
666.752	0.05
667.193	0.05
667.634	0.05
668.076	0.05
668.517	0.05
668.959	0.05
669.4	0.06
669.841	0.06
670.282	0.06
670.724	0.06
671.165	0.06
671.606	0.06
672.047	0.06
672.488	0.06
672.929	0.06
673.37	0.06
673.811	0.06
674.252	0.06
674.693	0.06
675.134	0.06
675.575	0.06
676.016	0.06
676.457	0.06
676.898	0.06
677.339	0.06
677.78	0.06
678.22	0.07
678.661	0.07
679.102	0.07
679.542	0.07
679.983	0.07
680.424	0.07
680.864	0.07
681.305	0.07
681.745	0.07
682.186	0.07
682.626	0.07
683.067	0.08
683.507	0.08
683.948	0.08
684.388	0.08
684.828	0.08
685.269	0.08
685.709	0.08
686.149	0.09
686.589	0.09
687.029	0.09
687.47	0.09
687.91	0.09
688.35	0.08
688.79	0.08
689.23	0.09
689.67	0.09
690.11	0.09
690.55	0.09
690.99	0.09
691.43	0.09
691.87	0.09
692.31	0.09
692.749	0.09
693.189	0.09
693.629	0.1
694.069	0.09
694.508	0.09
694.948	0.1
695.388	0.1
695.827	0.1
696.267	0.1
696.706	0.1
697.146	0.1
697.586	0.1
698.025	0.1
698.464	0.1
698.904	0.1
699.343	0.1
699.783	0.1
700.222	0.1
700.661	0.1
701.101	0.1
701.54	0.1
701.979	0.1
702.418	0.1
702.857	0.1
703.297	0.1
703.736	0.1
704.175	0.1
704.614	0.1
705.053	0.1
705.492	0.11
705.931	0.11
706.37	0.11
706.809	0.11
707.248	0.11
707.687	0.11
708.125	0.11
708.564	0.11
709.003	0.11
709.442	0.1
709.88	0.1
710.319	0.1
710.758	0.1
711.196	0.1
711.635	0.1
712.074	0.1
712.512	0.1
712.951	0.1
713.389	0.1
713.828	0.1
714.266	0.1
714.705	0.1
715.143	0.1
715.581	0.1
716.02	0.09
716.458	0.09
716.896	0.09
717.334	0.09
717.773	0.09
718.211	0.09
718.649	0.09
719.087	0.09
719.525	0.09
719.963	0.09
720.401	0.09
720.839	0.08
721.277	0.08
721.715	0.08
722.153	0.08
722.591	0.08
723.029	0.08
723.467	0.08
723.905	0.08
724.342	0.08
724.78	0.08
725.218	0.08
725.656	0.08
726.093	0.08
726.531	0.08
726.969	0.08
727.406	0.08
727.844	0.08
728.281	0.08
728.719	0.08
729.156	0.08
729.594	0.08
730.031	0.08
730.469	0.08
730.906	0.08
731.343	0.08
731.781	0.08
732.218	0.08
732.655	0.08
733.092	0.07
733.53	0.07
733.967	0.07
734.404	0.07
734.841	0.07
735.278	0.06
735.715	0.06
736.152	0.06
736.589	0.06
737.026	0.06
737.463	0.06
737.9	0.05
738.337	0.05
738.774	0.05
739.211	0.05
739.647	0.04
740.084	0.04
740.521	0.04
740.958	0.04
741.394	0.03
741.831	0.02
742.268	0.02
742.704	0.01
743.141	0.01
743.577	0.01
744.014	0
744.45	0
744.887	-0
745.323	-0
745.76	-0
746.196	-0
746.632	0
747.069	0
747.505	0.01
747.941	0.01
748.378	0.01
748.814	0.01
749.25	0.01
749.686	0.01
750.122	0.02
750.558	0.02
750.994	0.02
751.43	0.02
751.866	0.02
752.302	0.02
752.738	0.02
753.174	0.02
753.61	0.02
754.046	0.02
754.482	0.02
754.918	0.02
755.354	0.03
755.789	0.03
756.225	0.03
756.661	0.03
757.096	0.03
757.532	0.03
757.968	0.03
758.403	0.03
758.839	0.03
759.274	0.03
759.71	0.02
760.145	0.02
760.581	0.01
761.016	0.01
761.452	0.01
761.887	0
762.322	0
762.758	0.01
763.193	0
763.628	0
764.063	-0
764.499	-0.01
764.934	-0.01
765.369	-0.01
765.804	-0.02
766.239	-0.01
766.674	-0.01
767.109	-0.01
767.544	-0.02
767.979	-0.03
768.414	-0.03
768.849	-0.03
769.284	-0.03
769.719	-0.03
770.154	-0.03
770.588	-0.03
771.023	-0.03
771.458	-0.04
771.893	-0.04
772.327	-0.04
772.762	-0.05
773.197	-0.05
773.631	-0.05
774.066	-0.05
774.5	-0.05
774.935	-0.05
775.369	-0.06
775.804	-0.06
776.238	-0.06
776.673	-0.06
777.107	-0.05
777.541	-0.05
777.976	-0.05
778.41	-0.05
778.844	-0.05
779.279	-0.04
779.713	-0.04
780.147	-0.03
780.581	-0.03
781.015	-0.03
781.449	-0.03
781.883	-0.03
782.317	-0.03
782.751	-0.03
783.185	-0.02
783.619	-0.02
784.053	-0.03
784.487	-0.03
784.921	-0.03
785.355	-0.03
785.789	-0.03
786.223	-0.03
786.656	-0.03
787.09	-0.02
787.524	-0.02
787.957	-0.02
788.391	-0.02
788.825	-0.02
789.258	-0.02
789.692	-0.02
790.125	-0.02
790.559	-0.02
790.992	-0.02
791.426	-0.02
791.859	-0.02
792.293	-0.01
792.726	-0.01
793.159	-0
793.593	0
794.026	-0
794.459	-0.01
794.892	-0.01
795.326	-0.01
795.759	-0.01
796.192	-0.01
796.625	-0.02
797.058	-0.03
797.491	-0.04
797.924	-0.04
798.357	-0.04
798.79	-0.04
799.223	-0.04
799.656	-0.04
800.089	-0.04
800.522	-0.04
800.955	-0.04
801.387	-0.04
801.82	-0.04
802.253	-0.05
802.686	-0.05
803.118	-0.05
803.551	-0.05
803.984	-0.04
804.416	-0.04
804.849	-0.03
805.281	-0.03
805.714	-0.03
806.146	-0.03
806.579	-0.03
807.011	-0.03
807.444	-0.03
807.876	-0.03
808.308	-0.03
808.741	-0.03
809.173	-0.04
809.605	-0.04
810.037	-0.04
810.47	-0.05
810.902	-0.05
811.334	-0.05
811.766	-0.05
812.198	-0.04
812.63	-0.04
813.062	-0.04
813.494	-0.04
813.926	-0.04
814.358	-0.04
814.79	-0.04
815.222	-0.03
815.654	-0.03
816.086	-0.03
816.518	-0.04
816.949	-0.04
817.381	-0.04
817.813	-0.04
818.245	-0.04
818.676	-0.03
819.108	-0.03
819.54	-0.03
819.971	-0.03
820.403	-0.04
820.834	-0.04
821.266	-0.04
821.697	-0.04
822.129	-0.04
822.56	-0.04
822.991	-0.04
823.423	-0.04
823.854	-0.04
824.286	-0.04
824.717	-0.04
825.148	-0.03
825.579	-0.03
826.01	-0.03
826.442	-0.03
826.873	-0.03
827.304	-0.02
827.735	-0.02
828.166	-0.02
828.597	-0.01
829.028	-0.01
829.459	-0.01
829.89	-0.01
830.321	-0.01
830.752	0
831.183	0.01
831.613	0.01
832.044	0.02
832.475	0.02
832.906	0.03
833.336	0.03
833.767	0.04
834.198	0.04
834.628	0.05
835.059	0.05
835.49	0.05
835.92	0.06
836.351	0.06
836.781	0.06
837.212	0.06
837.642	0.07
838.072	0.07
838.503	0.07
838.933	0.07
839.364	0.07
839.794	0.08
840.224	0.08
840.654	0.08
841.085	0.08
841.515	0.09
841.945	0.09
842.375	0.09
842.805	0.1
843.235	0.1
843.665	0.1
844.095	0.11
844.525	0.11
844.955	0.11
845.385	0.12
845.815	0.12
846.245	0.12
846.675	0.13
847.105	0.13
847.534	0.13
847.964	0.14
848.394	0.14
848.824	0.14
849.253	0.15
849.683	0.15
850.112	0.15
850.542	0.15
850.972	0.15
851.401	0.16
851.831	0.16
852.26	0.16
852.69	0.16
853.119	0.16
853.548	0.16
853.978	0.17
854.407	0.17
854.836	0.17
855.266	0.17
855.695	0.17
856.124	0.18
856.553	0.18
856.983	0.18
857.412	0.18
857.841	0.18
858.27	0.18
858.699	0.19
859.128	0.19
859.557	0.19
859.986	0.19
860.415	0.19
860.844	0.19
861.273	0.19
861.702	0.2
862.13	0.2
862.559	0.2
862.988	0.2
863.417	0.2
863.845	0.2
864.274	0.21
864.703	0.21
865.131	0.21
865.56	0.21
865.989	0.21
866.417	0.21
866.846	0.21
867.274	0.22
867.703	0.22
868.131	0.22
868.559	0.22
868.988	0.22
869.416	0.22
869.844	0.22
870.273	0.23
870.701	0.23
871.129	0.23
871.557	0.23
871.986	0.23
872.414	0.23
872.842	0.23
873.27	0.23
873.698	0.23
