Data from redip-kinet-2-5a_Absorbance__34__00034.txt Node

Date: Fri Apr 12 13:46:38 CEST 2024
User: Laser008
Spectrometer: MAYP115816
Trigger mode: 0
Integration Time (sec): 2.000000E-1
Scans to average: 10
Electric dark correction enabled: true
Nonlinearity correction enabled: true
Boxcar width: 5
XAxis mode: Wavelengths
Number of Pixels in Spectrum: 2068
>>>>>Begin Spectral Data<<<<<
198.914	-2.28
199.384	-2.12
199.855	-1.98
200.325	-1.87
200.796	-1.79
201.266	-1.74
201.737	-1.66
202.207	-1.6
202.677	-1.54
203.147	-1.5
203.618	-1.47
204.088	-1.44
204.558	-1.42
205.028	-1.41
205.498	-1.4
205.968	-1.4
206.439	-1.4
206.909	-1.39
207.379	-1.39
207.849	-1.39
208.319	-1.38
208.789	-1.38
209.258	-1.38
209.728	-1.38
210.198	-1.37
210.668	-1.37
211.138	-1.37
211.608	-1.37
212.077	-1.37
212.547	-1.37
213.017	-1.37
213.486	-1.36
213.956	-1.36
214.426	-1.36
214.895	-1.36
215.365	-1.36
215.834	-1.36
216.304	-1.36
216.773	-1.36
217.243	-1.35
217.712	-1.35
218.181	-1.35
218.651	-1.35
219.12	-1.34
219.589	-1.34
220.058	-1.34
220.528	-1.33
220.997	-1.33
221.466	-1.33
221.935	-1.32
222.404	-1.32
222.873	-1.31
223.342	-1.31
223.812	-1.3
224.281	-1.29
224.749	-1.28
225.218	-1.27
225.687	-1.26
226.156	-1.25
226.625	-1.24
227.094	-1.22
227.563	-1.21
228.031	-1.19
228.5	-1.17
228.969	-1.14
229.438	-1.11
229.906	-1.08
230.375	-1.04
230.844	-1.01
231.312	-0.97
231.781	-0.92
232.249	-0.88
232.718	-0.83
233.186	-0.78
233.655	-0.73
234.123	-0.68
234.591	-0.63
235.06	-0.58
235.528	-0.53
235.996	-0.48
236.465	-0.43
236.933	-0.39
237.401	-0.34
237.869	-0.3
238.337	-0.26
238.805	-0.22
239.274	-0.18
239.742	-0.15
240.21	-0.12
240.678	-0.08
241.146	-0.06
241.614	-0.03
242.081	-0
242.549	0.02
243.017	0.04
243.485	0.06
243.953	0.09
244.421	0.1
244.888	0.12
245.356	0.14
245.824	0.15
246.291	0.17
246.759	0.18
247.227	0.19
247.694	0.2
248.162	0.21
248.629	0.22
249.097	0.23
249.564	0.24
250.032	0.25
250.499	0.26
250.967	0.27
251.434	0.28
251.901	0.28
252.369	0.29
252.836	0.3
253.303	0.3
253.77	0.31
254.237	0.31
254.705	0.32
255.172	0.32
255.639	0.33
256.106	0.33
256.573	0.34
257.04	0.34
257.507	0.34
257.974	0.34
258.441	0.35
258.908	0.35
259.375	0.35
259.841	0.35
260.308	0.36
260.775	0.36
261.242	0.36
261.709	0.36
262.175	0.36
262.642	0.36
263.109	0.36
263.575	0.37
264.042	0.37
264.508	0.37
264.975	0.37
265.441	0.37
265.908	0.37
266.374	0.37
266.841	0.37
267.307	0.37
267.773	0.37
268.24	0.37
268.706	0.37
269.172	0.37
269.639	0.36
270.105	0.36
270.571	0.36
271.037	0.36
271.503	0.36
271.969	0.36
272.435	0.36
272.902	0.36
273.368	0.36
273.834	0.36
274.3	0.35
274.765	0.35
275.231	0.35
275.697	0.35
276.163	0.35
276.629	0.34
277.095	0.34
277.56	0.34
278.026	0.34
278.492	0.34
278.958	0.33
279.423	0.33
279.889	0.33
280.354	0.33
280.82	0.33
281.286	0.33
281.751	0.33
282.217	0.33
282.682	0.33
283.147	0.33
283.613	0.33
284.078	0.32
284.544	0.32
285.009	0.32
285.474	0.32
285.939	0.32
286.405	0.32
286.87	0.32
287.335	0.31
287.8	0.31
288.265	0.31
288.73	0.31
289.195	0.31
289.66	0.31
290.125	0.31
290.59	0.31
291.055	0.31
291.52	0.3
291.985	0.3
292.45	0.3
292.915	0.3
293.38	0.3
293.844	0.3
294.309	0.3
294.774	0.3
295.239	0.3
295.703	0.3
296.168	0.3
296.632	0.29
297.097	0.29
297.562	0.29
298.026	0.29
298.491	0.29
298.955	0.29
299.419	0.29
299.884	0.29
300.348	0.29
300.813	0.29
301.277	0.29
301.741	0.29
302.205	0.29
302.67	0.29
303.134	0.28
303.598	0.28
304.062	0.28
304.526	0.28
304.99	0.28
305.454	0.28
305.919	0.28
306.383	0.28
306.847	0.28
307.31	0.28
307.774	0.28
308.238	0.28
308.702	0.28
309.166	0.28
309.63	0.28
310.094	0.27
310.557	0.27
311.021	0.27
311.485	0.27
311.948	0.27
312.412	0.27
312.876	0.27
313.339	0.27
313.803	0.27
314.266	0.27
314.73	0.27
315.193	0.27
315.657	0.26
316.12	0.26
316.584	0.26
317.047	0.26
317.51	0.26
317.973	0.26
318.437	0.26
318.9	0.26
319.363	0.26
319.826	0.26
320.29	0.26
320.753	0.26
321.216	0.25
321.679	0.25
322.142	0.25
322.605	0.25
323.068	0.25
323.531	0.25
323.994	0.25
324.457	0.25
324.92	0.25
325.382	0.25
325.845	0.25
326.308	0.25
326.771	0.24
327.233	0.24
327.696	0.24
328.159	0.24
328.622	0.24
329.084	0.24
329.547	0.24
330.009	0.24
330.472	0.24
330.934	0.24
331.397	0.24
331.859	0.24
332.322	0.23
332.784	0.23
333.246	0.23
333.709	0.23
334.171	0.23
334.633	0.23
335.096	0.23
335.558	0.23
336.02	0.23
336.482	0.23
336.944	0.23
337.406	0.23
337.868	0.23
338.331	0.22
338.793	0.22
339.255	0.22
339.717	0.22
340.178	0.22
340.64	0.22
341.102	0.22
341.564	0.22
342.026	0.22
342.488	0.22
342.949	0.22
343.411	0.22
343.873	0.22
344.335	0.22
344.796	0.22
345.258	0.21
345.719	0.21
346.181	0.21
346.643	0.21
347.104	0.21
347.566	0.21
348.027	0.21
348.488	0.21
348.95	0.21
349.411	0.21
349.873	0.21
350.334	0.21
350.795	0.2
351.256	0.2
351.718	0.2
352.179	0.2
352.64	0.2
353.101	0.2
353.562	0.2
354.023	0.2
354.484	0.2
354.945	0.19
355.406	0.19
355.867	0.19
356.328	0.19
356.789	0.19
357.25	0.19
357.711	0.19
358.172	0.19
358.633	0.19
359.093	0.19
359.554	0.19
360.015	0.19
360.476	0.2
360.936	0.2
361.397	0.2
361.858	0.2
362.318	0.2
362.779	0.2
363.239	0.2
363.7	0.2
364.16	0.2
364.621	0.2
365.081	0.19
365.541	0.19
366.002	0.19
366.462	0.19
366.922	0.19
367.383	0.19
367.843	0.19
368.303	0.19
368.763	0.19
369.223	0.19
369.684	0.19
370.144	0.19
370.604	0.19
371.064	0.19
371.524	0.19
371.984	0.19
372.444	0.19
372.904	0.19
373.363	0.19
373.823	0.19
374.283	0.19
374.743	0.19
375.203	0.19
375.663	0.19
376.122	0.19
376.582	0.19
377.042	0.19
377.501	0.19
377.961	0.19
378.42	0.19
378.88	0.19
379.34	0.19
379.799	0.19
380.259	0.19
380.718	0.19
381.177	0.19
381.637	0.19
382.096	0.19
382.555	0.19
383.015	0.18
383.474	0.18
383.933	0.18
384.393	0.18
384.852	0.18
385.311	0.18
385.77	0.18
386.229	0.18
386.688	0.18
387.147	0.18
387.606	0.18
388.065	0.18
388.524	0.18
388.983	0.18
389.442	0.18
389.901	0.18
390.36	0.18
390.819	0.18
391.277	0.18
391.736	0.18
392.195	0.18
392.654	0.18
393.112	0.18
393.571	0.18
394.03	0.18
394.488	0.18
394.947	0.18
395.405	0.18
395.864	0.18
396.322	0.18
396.781	0.18
397.239	0.18
397.698	0.18
398.156	0.18
398.614	0.18
399.073	0.18
399.531	0.18
399.989	0.18
400.447	0.18
400.905	0.18
401.364	0.18
401.822	0.18
402.28	0.18
402.738	0.18
403.196	0.18
403.654	0.18
404.112	0.18
404.57	0.17
405.028	0.17
405.486	0.17
405.944	0.17
406.402	0.17
406.859	0.17
407.317	0.17
407.775	0.17
408.233	0.17
408.691	0.17
409.148	0.17
409.606	0.17
410.064	0.17
410.521	0.17
410.979	0.17
411.436	0.17
411.894	0.17
412.351	0.17
412.809	0.17
413.266	0.17
413.724	0.17
414.181	0.17
414.638	0.17
415.096	0.17
415.553	0.17
416.01	0.17
416.467	0.16
416.925	0.16
417.382	0.16
417.839	0.16
418.296	0.16
418.753	0.16
419.21	0.16
419.667	0.17
420.124	0.17
420.581	0.17
421.038	0.17
421.495	0.17
421.952	0.17
422.409	0.17
422.866	0.17
423.322	0.17
423.779	0.17
424.236	0.17
424.693	0.17
425.149	0.17
425.606	0.16
426.063	0.16
426.519	0.16
426.976	0.16
427.433	0.16
427.889	0.16
428.346	0.17
428.802	0.17
429.258	0.17
429.715	0.17
430.171	0.17
430.628	0.17
431.084	0.17
431.54	0.17
431.997	0.16
432.453	0.16
432.909	0.16
433.365	0.16
433.821	0.16
434.277	0.16
434.734	0.16
435.19	0.16
435.646	0.16
436.102	0.16
436.558	0.16
437.014	0.16
437.47	0.16
437.925	0.16
438.381	0.16
438.837	0.16
439.293	0.16
439.749	0.16
440.205	0.16
440.66	0.16
441.116	0.16
441.572	0.16
442.027	0.16
442.483	0.16
442.939	0.16
443.394	0.16
443.85	0.16
444.305	0.16
444.761	0.16
445.216	0.16
445.672	0.16
446.127	0.16
446.582	0.16
447.038	0.16
447.493	0.16
447.948	0.16
448.403	0.16
448.859	0.16
449.314	0.16
449.769	0.16
450.224	0.16
450.679	0.16
451.134	0.16
451.589	0.16
452.044	0.15
452.499	0.15
452.954	0.15
453.409	0.15
453.864	0.15
454.319	0.15
454.774	0.15
455.229	0.15
455.684	0.15
456.138	0.15
456.593	0.15
457.048	0.15
457.503	0.15
457.957	0.15
458.412	0.15
458.866	0.15
459.321	0.15
459.776	0.15
460.23	0.15
460.685	0.15
461.139	0.15
461.593	0.15
462.048	0.15
462.502	0.15
462.957	0.15
463.411	0.15
463.865	0.15
464.319	0.15
464.774	0.15
465.228	0.15
465.682	0.15
466.136	0.15
466.59	0.15
467.044	0.15
467.499	0.15
467.953	0.14
468.407	0.14
468.861	0.14
469.315	0.14
469.768	0.14
470.222	0.14
470.676	0.13
471.13	0.13
471.584	0.13
472.038	0.13
472.491	0.13
472.945	0.14
473.399	0.14
473.852	0.14
474.306	0.14
474.76	0.14
475.213	0.14
475.667	0.14
476.12	0.14
476.574	0.14
477.027	0.14
477.481	0.14
477.934	0.14
478.388	0.14
478.841	0.14
479.294	0.15
479.748	0.15
480.201	0.15
480.654	0.15
481.107	0.15
481.561	0.15
482.014	0.15
482.467	0.15
482.92	0.15
483.373	0.16
483.826	0.16
484.279	0.17
484.732	0.17
485.185	0.17
485.638	0.17
486.091	0.17
486.544	0.17
486.997	0.17
487.449	0.17
487.902	0.17
488.355	0.17
488.808	0.17
489.26	0.16
489.713	0.16
490.166	0.16
490.618	0.16
491.071	0.16
491.523	0.16
491.976	0.16
492.429	0.16
492.881	0.16
493.333	0.16
493.786	0.16
494.238	0.17
494.691	0.17
495.143	0.17
495.595	0.17
496.048	0.17
496.5	0.17
496.952	0.17
497.404	0.17
497.856	0.17
498.309	0.17
498.761	0.17
499.213	0.17
499.665	0.17
500.117	0.17
500.569	0.18
501.021	0.18
501.473	0.18
501.925	0.18
502.377	0.18
502.828	0.18
503.28	0.19
503.732	0.19
504.184	0.19
504.636	0.19
505.087	0.19
505.539	0.19
505.991	0.19
506.442	0.19
506.894	0.19
507.345	0.19
507.797	0.19
508.249	0.19
508.7	0.19
509.151	0.19
509.603	0.19
510.054	0.19
510.506	0.19
510.957	0.19
511.408	0.19
511.86	0.19
512.311	0.19
512.762	0.19
513.213	0.18
513.665	0.18
514.116	0.18
514.567	0.18
515.018	0.18
515.469	0.18
515.92	0.18
516.371	0.18
516.822	0.18
517.273	0.18
517.724	0.18
518.175	0.18
518.626	0.18
519.076	0.18
519.527	0.18
519.978	0.17
520.429	0.17
520.88	0.17
521.33	0.17
521.781	0.16
522.232	0.16
522.682	0.16
523.133	0.15
523.583	0.15
524.034	0.15
524.484	0.15
524.935	0.15
525.385	0.15
525.836	0.16
526.286	0.16
526.736	0.16
527.187	0.17
527.637	0.17
528.087	0.17
528.538	0.18
528.988	0.18
529.438	0.18
529.888	0.18
530.338	0.19
530.788	0.19
531.238	0.19
531.688	0.19
532.139	0.19
532.589	0.19
533.038	0.19
533.488	0.19
533.938	0.19
534.388	0.19
534.838	0.19
535.288	0.19
535.738	0.19
536.187	0.19
536.637	0.19
537.087	0.19
537.537	0.19
537.986	0.19
538.436	0.19
538.885	0.19
539.335	0.19
539.785	0.19
540.234	0.19
540.684	0.19
541.133	0.19
541.582	0.19
542.032	0.19
542.481	0.19
542.931	0.18
543.38	0.18
543.829	0.18
544.278	0.18
544.728	0.18
545.177	0.18
545.626	0.18
546.075	0.18
546.524	0.18
546.973	0.18
547.422	0.18
547.871	0.17
548.32	0.17
548.769	0.17
549.218	0.17
549.667	0.16
550.116	0.16
550.565	0.16
551.014	0.16
551.463	0.15
551.911	0.15
552.36	0.15
552.809	0.15
553.258	0.15
553.706	0.15
554.155	0.15
554.603	0.15
555.052	0.14
555.501	0.14
555.949	0.14
556.398	0.13
556.846	0.13
557.294	0.13
557.743	0.13
558.191	0.12
558.64	0.12
559.088	0.12
559.536	0.12
559.985	0.12
560.433	0.12
560.881	0.12
561.329	0.12
561.777	0.12
562.225	0.12
562.674	0.12
563.122	0.12
563.57	0.12
564.018	0.11
564.466	0.11
564.914	0.11
565.362	0.11
565.809	0.11
566.257	0.1
566.705	0.1
567.153	0.11
567.601	0.11
568.048	0.11
568.496	0.11
568.944	0.11
569.392	0.12
569.839	0.12
570.287	0.12
570.734	0.12
571.182	0.13
571.63	0.13
572.077	0.13
572.525	0.13
572.972	0.13
573.419	0.13
573.867	0.13
574.314	0.13
574.761	0.13
575.209	0.13
575.656	0.13
576.103	0.13
576.551	0.13
576.998	0.13
577.445	0.13
577.892	0.12
578.339	0.12
578.786	0.12
579.233	0.12
579.68	0.13
580.127	0.12
580.574	0.12
581.021	0.12
581.468	0.12
581.915	0.12
582.362	0.12
582.809	0.12
583.255	0.12
583.702	0.12
584.149	0.11
584.596	0.11
585.042	0.11
585.489	0.11
585.936	0.11
586.382	0.11
586.829	0.11
587.275	0.1
587.722	0.1
588.168	0.1
588.615	0.1
589.061	0.09
589.508	0.09
589.954	0.09
590.4	0.09
590.847	0.09
591.293	0.09
591.739	0.09
592.185	0.09
592.632	0.09
593.078	0.09
593.524	0.09
593.97	0.09
594.416	0.09
594.862	0.09
595.308	0.08
595.754	0.08
596.2	0.08
596.646	0.08
597.092	0.08
597.538	0.08
597.984	0.08
598.43	0.08
598.876	0.09
599.321	0.09
599.767	0.09
600.213	0.09
600.659	0.08
601.104	0.08
601.55	0.08
601.995	0.08
602.441	0.08
602.887	0.08
603.332	0.08
603.778	0.08
604.223	0.08
604.668	0.08
605.114	0.08
605.559	0.08
606.005	0.08
606.45	0.08
606.895	0.08
607.341	0.08
607.786	0.08
608.231	0.08
608.676	0.08
609.121	0.08
609.566	0.08
610.012	0.08
610.457	0.08
610.902	0.08
611.347	0.08
611.792	0.08
612.237	0.08
612.682	0.08
613.127	0.08
613.571	0.08
614.016	0.08
614.461	0.08
614.906	0.08
615.351	0.08
615.795	0.08
616.24	0.08
616.685	0.08
617.129	0.07
617.574	0.07
618.019	0.07
618.463	0.07
618.908	0.07
619.352	0.07
619.797	0.07
620.241	0.07
620.686	0.07
621.13	0.07
621.574	0.07
622.019	0.07
622.463	0.08
622.907	0.08
623.352	0.08
623.796	0.08
624.24	0.08
624.684	0.08
625.128	0.08
625.572	0.08
626.016	0.08
626.461	0.08
626.905	0.08
627.349	0.08
627.793	0.08
628.236	0.08
628.68	0.08
629.124	0.08
629.568	0.08
630.012	0.08
630.456	0.08
630.9	0.08
631.343	0.08
631.787	0.08
632.231	0.08
632.674	0.08
633.118	0.08
633.562	0.08
634.005	0.08
634.449	0.08
634.892	0.08
635.336	0.08
635.779	0.08
636.223	0.09
636.666	0.09
637.109	0.09
637.553	0.09
637.996	0.09
638.439	0.09
638.883	0.09
639.326	0.1
639.769	0.1
640.212	0.1
640.655	0.1
641.099	0.1
641.542	0.1
641.985	0.1
642.428	0.11
642.871	0.11
643.314	0.11
643.757	0.11
644.2	0.12
644.643	0.12
645.085	0.12
645.528	0.12
645.971	0.13
646.414	0.13
646.857	0.13
647.299	0.14
647.742	0.14
648.185	0.14
648.627	0.15
649.07	0.15
649.513	0.15
649.955	0.15
650.398	0.16
650.84	0.16
651.283	0.16
651.725	0.16
652.168	0.16
652.61	0.16
653.052	0.17
653.495	0.17
653.937	0.14
654.379	0.12
654.821	0.12
655.264	0.13
655.706	0.13
656.148	0.13
656.59	0.13
657.032	0.14
657.474	0.14
657.916	0.14
658.358	0.14
658.8	0.17
659.242	0.21
659.684	0.21
660.126	0.21
660.568	0.21
661.01	0.21
661.452	0.21
661.894	0.21
662.335	0.22
662.777	0.22
663.219	0.22
663.661	0.23
664.102	0.23
664.544	0.23
664.985	0.24
665.427	0.24
665.869	0.24
666.31	0.24
666.752	0.25
667.193	0.25
667.634	0.25
668.076	0.25
668.517	0.26
668.959	0.26
669.4	0.26
669.841	0.27
670.282	0.27
670.724	0.27
671.165	0.28
671.606	0.28
672.047	0.28
672.488	0.28
672.929	0.28
673.37	0.28
673.811	0.28
674.252	0.28
674.693	0.28
675.134	0.28
675.575	0.28
676.016	0.29
676.457	0.29
676.898	0.29
677.339	0.29
677.78	0.3
678.22	0.3
678.661	0.3
679.102	0.3
679.542	0.3
679.983	0.31
680.424	0.31
680.864	0.31
681.305	0.31
681.745	0.31
682.186	0.31
682.626	0.31
683.067	0.31
683.507	0.32
683.948	0.32
684.388	0.32
684.828	0.32
685.269	0.32
685.709	0.32
686.149	0.32
686.589	0.32
687.029	0.32
687.47	0.32
687.91	0.32
688.35	0.32
688.79	0.32
689.23	0.32
689.67	0.32
690.11	0.32
690.55	0.32
690.99	0.32
691.43	0.33
691.87	0.33
692.31	0.33
692.749	0.32
693.189	0.32
693.629	0.32
694.069	0.32
694.508	0.32
694.948	0.32
695.388	0.32
695.827	0.32
696.267	0.32
696.706	0.32
697.146	0.32
697.586	0.32
698.025	0.32
698.464	0.32
698.904	0.31
699.343	0.31
699.783	0.31
700.222	0.31
700.661	0.31
701.101	0.31
701.54	0.31
701.979	0.3
702.418	0.3
702.857	0.3
703.297	0.3
703.736	0.3
704.175	0.3
704.614	0.3
705.053	0.3
705.492	0.3
705.931	0.29
706.37	0.29
706.809	0.29
707.248	0.29
707.687	0.29
708.125	0.29
708.564	0.28
709.003	0.28
709.442	0.28
709.88	0.28
710.319	0.27
710.758	0.27
711.196	0.27
711.635	0.26
712.074	0.26
712.512	0.26
712.951	0.26
713.389	0.26
713.828	0.26
714.266	0.25
714.705	0.25
715.143	0.25
715.581	0.24
716.02	0.24
716.458	0.24
716.896	0.24
717.334	0.23
717.773	0.23
718.211	0.23
718.649	0.22
719.087	0.22
719.525	0.22
719.963	0.22
720.401	0.22
720.839	0.21
721.277	0.21
721.715	0.21
722.153	0.2
722.591	0.2
723.029	0.2
723.467	0.2
723.905	0.2
724.342	0.2
724.78	0.19
725.218	0.19
725.656	0.19
726.093	0.19
726.531	0.19
726.969	0.18
727.406	0.18
727.844	0.18
728.281	0.18
728.719	0.18
729.156	0.18
729.594	0.17
730.031	0.17
730.469	0.17
730.906	0.17
731.343	0.17
731.781	0.17
732.218	0.16
732.655	0.16
733.092	0.16
733.53	0.16
733.967	0.15
734.404	0.15
734.841	0.15
735.278	0.14
735.715	0.14
736.152	0.14
736.589	0.13
737.026	0.13
737.463	0.13
737.9	0.13
738.337	0.13
738.774	0.12
739.211	0.12
739.647	0.12
740.084	0.11
740.521	0.11
740.958	0.11
741.394	0.1
741.831	0.1
742.268	0.09
742.704	0.09
743.141	0.09
743.577	0.08
744.014	0.08
744.45	0.08
744.887	0.08
745.323	0.07
745.76	0.07
746.196	0.07
746.632	0.07
747.069	0.07
747.505	0.07
747.941	0.07
748.378	0.07
748.814	0.07
749.25	0.07
749.686	0.07
750.122	0.07
750.558	0.07
750.994	0.07
751.43	0.07
751.866	0.07
752.302	0.07
752.738	0.06
753.174	0.06
753.61	0.06
754.046	0.06
754.482	0.06
754.918	0.06
755.354	0.06
755.789	0.06
756.225	0.06
756.661	0.06
757.096	0.06
757.532	0.06
757.968	0.06
758.403	0.06
758.839	0.06
759.274	0.06
759.71	0.05
760.145	0.05
760.581	0.05
761.016	0.04
761.452	0.04
761.887	0.04
762.322	0.04
762.758	0.04
763.193	0.03
763.628	0.03
764.063	0.03
764.499	0.02
764.934	0.02
765.369	0.02
765.804	0.02
766.239	0.02
766.674	0.02
767.109	0.01
767.544	0.01
767.979	0.01
768.414	0
768.849	0
769.284	0
769.719	0
770.154	-0
770.588	-0
771.023	-0.01
771.458	-0.01
771.893	-0.01
772.327	-0.02
772.762	-0.02
773.197	-0.02
773.631	-0.03
774.066	-0.03
774.5	-0.04
774.935	-0.04
775.369	-0.04
775.804	-0.05
776.238	-0.05
776.673	-0.06
777.107	-0.06
777.541	-0.07
777.976	-0.07
778.41	-0.07
778.844	-0.07
779.279	-0.07
779.713	-0.07
780.147	-0.07
780.581	-0.07
781.015	-0.07
781.449	-0.07
781.883	-0.07
782.317	-0.07
782.751	-0.07
783.185	-0.06
783.619	-0.06
784.053	-0.07
784.487	-0.07
784.921	-0.07
785.355	-0.07
785.789	-0.07
786.223	-0.07
786.656	-0.06
787.09	-0.06
787.524	-0.06
787.957	-0.06
788.391	-0.06
788.825	-0.06
789.258	-0.06
789.692	-0.06
790.125	-0.06
790.559	-0.06
790.992	-0.06
791.426	-0.06
791.859	-0.06
792.293	-0.05
792.726	-0.04
793.159	-0.04
793.593	-0.04
794.026	-0.04
794.459	-0.05
794.892	-0.05
795.326	-0.05
795.759	-0.05
796.192	-0.05
796.625	-0.06
797.058	-0.07
797.491	-0.07
797.924	-0.08
798.357	-0.08
798.79	-0.08
799.223	-0.08
799.656	-0.08
800.089	-0.08
800.522	-0.08
800.955	-0.08
801.387	-0.08
801.82	-0.08
802.253	-0.08
802.686	-0.08
803.118	-0.09
803.551	-0.08
803.984	-0.08
804.416	-0.07
804.849	-0.07
805.281	-0.07
805.714	-0.07
806.146	-0.07
806.579	-0.07
807.011	-0.07
807.444	-0.07
807.876	-0.07
808.308	-0.07
808.741	-0.07
809.173	-0.08
809.605	-0.08
810.037	-0.08
810.47	-0.09
810.902	-0.09
811.334	-0.09
811.766	-0.08
812.198	-0.08
812.63	-0.08
813.062	-0.08
813.494	-0.08
813.926	-0.08
814.358	-0.08
814.79	-0.08
815.222	-0.07
815.654	-0.07
816.086	-0.07
816.518	-0.08
816.949	-0.08
817.381	-0.08
817.813	-0.08
818.245	-0.08
818.676	-0.07
819.108	-0.07
819.54	-0.07
819.971	-0.07
820.403	-0.07
820.834	-0.08
821.266	-0.07
821.697	-0.07
822.129	-0.07
822.56	-0.07
822.991	-0.08
823.423	-0.08
823.854	-0.08
824.286	-0.08
824.717	-0.08
825.148	-0.07
825.579	-0.07
826.01	-0.06
826.442	-0.06
826.873	-0.05
827.304	-0.05
827.735	-0.04
828.166	-0.04
828.597	-0.03
829.028	-0.03
829.459	-0.02
829.89	-0.02
830.321	-0.02
830.752	-0.01
831.183	-0.01
831.613	-0.01
832.044	-0.01
832.475	-0
832.906	-0
833.336	-0
833.767	0
834.198	0
834.628	0
835.059	0.01
835.49	0.01
835.92	0.01
836.351	0.01
836.781	0.01
837.212	0.01
837.642	0.01
838.072	0.01
838.503	0.01
838.933	0.01
839.364	0.02
839.794	0.02
840.224	0.02
840.654	0.02
841.085	0.02
841.515	0.02
841.945	0.02
842.375	0.02
842.805	0.02
843.235	0.02
843.665	0.02
844.095	0.02
844.525	0.03
844.955	0.03
845.385	0.03
845.815	0.03
846.245	0.03
846.675	0.03
847.105	0.03
847.534	0.03
847.964	0.03
848.394	0.03
848.824	0.03
849.253	0.03
849.683	0.04
850.112	0.04
850.542	0.04
850.972	0.04
851.401	0.04
851.831	0.04
852.26	0.04
852.69	0.04
853.119	0.04
853.548	0.04
853.978	0.04
854.407	0.04
854.836	0.04
855.266	0.04
855.695	0.04
856.124	0.04
856.553	0.05
856.983	0.05
857.412	0.05
857.841	0.05
858.27	0.05
858.699	0.05
859.128	0.05
859.557	0.05
859.986	0.05
860.415	0.05
860.844	0.05
861.273	0.05
861.702	0.05
862.13	0.05
862.559	0.05
862.988	0.05
863.417	0.05
863.845	0.05
864.274	0.05
864.703	0.05
865.131	0.06
865.56	0.06
865.989	0.06
866.417	0.06
866.846	0.06
867.274	0.06
867.703	0.06
868.131	0.06
868.559	0.06
868.988	0.06
869.416	0.06
869.844	0.06
870.273	0.06
870.701	0.06
871.129	0.06
871.557	0.06
871.986	0.06
872.414	0.06
872.842	0.06
873.27	0.06
873.698	0.06
874.126	0.06
874.554	0.06
874.982	0.06
875.41	0.06
875.838	0.06
876.266	0.06
876.694	0.06
