Data from redip-kinet-2-5a_Absorbance__1__00001.txt Node

Date: Fri Apr 12 13:45:32 CEST 2024
User: Laser008
Spectrometer: MAYP115816
Trigger mode: 0
Integration Time (sec): 2.000000E-1
Scans to average: 10
Electric dark correction enabled: true
Nonlinearity correction enabled: true
Boxcar width: 5
XAxis mode: Wavelengths
Number of Pixels in Spectrum: 2068
>>>>>Begin Spectral Data<<<<<
198.914	-1.98
199.384	-1.82
199.855	-1.68
200.325	-1.57
200.796	-1.49
201.266	-1.44
201.737	-1.36
202.207	-1.3
202.677	-1.25
203.147	-1.2
203.618	-1.17
204.088	-1.15
204.558	-1.13
205.028	-1.12
205.498	-1.11
205.968	-1.11
206.439	-1.11
206.909	-1.1
207.379	-1.1
207.849	-1.09
208.319	-1.09
208.789	-1.09
209.258	-1.09
209.728	-1.08
210.198	-1.08
210.668	-1.08
211.138	-1.08
211.608	-1.08
212.077	-1.08
212.547	-1.08
213.017	-1.07
213.486	-1.07
213.956	-1.07
214.426	-1.07
214.895	-1.07
215.365	-1.07
215.834	-1.07
216.304	-1.06
216.773	-1.06
217.243	-1.06
217.712	-1.06
218.181	-1.05
218.651	-1.05
219.12	-1.05
219.589	-1.05
220.058	-1.05
220.528	-1.04
220.997	-1.04
221.466	-1.03
221.935	-1.03
222.404	-1.03
222.873	-1.02
223.342	-1.01
223.812	-1.01
224.281	-1
224.749	-0.99
225.218	-0.99
225.687	-0.98
226.156	-0.96
226.625	-0.95
227.094	-0.94
227.563	-0.92
228.031	-0.9
228.5	-0.88
228.969	-0.86
229.438	-0.83
229.906	-0.8
230.375	-0.77
230.844	-0.74
231.312	-0.7
231.781	-0.66
232.249	-0.62
232.718	-0.58
233.186	-0.53
233.655	-0.49
234.123	-0.45
234.591	-0.4
235.06	-0.36
235.528	-0.32
235.996	-0.29
236.465	-0.25
236.933	-0.22
237.401	-0.18
237.869	-0.15
238.337	-0.13
238.805	-0.1
239.274	-0.08
239.742	-0.05
240.21	-0.03
240.678	-0.01
241.146	0
241.614	0.02
242.081	0.04
242.549	0.05
243.017	0.06
243.485	0.08
243.953	0.09
244.421	0.1
244.888	0.11
245.356	0.12
245.824	0.12
246.291	0.13
246.759	0.14
247.227	0.15
247.694	0.15
248.162	0.16
248.629	0.17
249.097	0.17
249.564	0.18
250.032	0.18
250.499	0.19
250.967	0.19
251.434	0.2
251.901	0.2
252.369	0.21
252.836	0.21
253.303	0.22
253.77	0.22
254.237	0.22
254.705	0.23
255.172	0.23
255.639	0.23
256.106	0.23
256.573	0.24
257.04	0.24
257.507	0.24
257.974	0.24
258.441	0.24
258.908	0.25
259.375	0.25
259.841	0.25
260.308	0.25
260.775	0.25
261.242	0.25
261.709	0.25
262.175	0.25
262.642	0.25
263.109	0.25
263.575	0.25
264.042	0.25
264.508	0.25
264.975	0.25
265.441	0.25
265.908	0.25
266.374	0.25
266.841	0.25
267.307	0.24
267.773	0.24
268.24	0.24
268.706	0.24
269.172	0.24
269.639	0.24
270.105	0.23
270.571	0.23
271.037	0.23
271.503	0.23
271.969	0.23
272.435	0.22
272.902	0.22
273.368	0.22
273.834	0.22
274.3	0.22
274.765	0.21
275.231	0.21
275.697	0.21
276.163	0.21
276.629	0.21
277.095	0.2
277.56	0.2
278.026	0.2
278.492	0.19
278.958	0.19
279.423	0.19
279.889	0.19
280.354	0.19
280.82	0.18
281.286	0.18
281.751	0.18
282.217	0.18
282.682	0.18
283.147	0.18
283.613	0.17
284.078	0.17
284.544	0.17
285.009	0.17
285.474	0.17
285.939	0.16
286.405	0.16
286.87	0.16
287.335	0.16
287.8	0.16
288.265	0.16
288.73	0.16
289.195	0.15
289.66	0.15
290.125	0.15
290.59	0.15
291.055	0.15
291.52	0.15
291.985	0.15
292.45	0.15
292.915	0.14
293.38	0.14
293.844	0.14
294.309	0.14
294.774	0.14
295.239	0.14
295.703	0.14
296.168	0.14
296.632	0.14
297.097	0.14
297.562	0.14
298.026	0.14
298.491	0.14
298.955	0.14
299.419	0.14
299.884	0.14
300.348	0.14
300.813	0.14
301.277	0.14
301.741	0.14
302.205	0.14
302.67	0.14
303.134	0.14
303.598	0.14
304.062	0.14
304.526	0.14
304.99	0.14
305.454	0.14
305.919	0.14
306.383	0.14
306.847	0.14
307.31	0.14
307.774	0.14
308.238	0.14
308.702	0.14
309.166	0.14
309.63	0.14
310.094	0.14
310.557	0.14
311.021	0.14
311.485	0.13
311.948	0.13
312.412	0.13
312.876	0.13
313.339	0.13
313.803	0.13
314.266	0.13
314.73	0.13
315.193	0.13
315.657	0.13
316.12	0.13
316.584	0.13
317.047	0.13
317.51	0.13
317.973	0.13
318.437	0.13
318.9	0.13
319.363	0.13
319.826	0.13
320.29	0.13
320.753	0.13
321.216	0.13
321.679	0.13
322.142	0.13
322.605	0.13
323.068	0.13
323.531	0.13
323.994	0.13
324.457	0.13
324.92	0.13
325.382	0.13
325.845	0.13
326.308	0.13
326.771	0.13
327.233	0.13
327.696	0.13
328.159	0.13
328.622	0.13
329.084	0.13
329.547	0.13
330.009	0.13
330.472	0.13
330.934	0.13
331.397	0.13
331.859	0.13
332.322	0.13
332.784	0.13
333.246	0.13
333.709	0.13
334.171	0.13
334.633	0.13
335.096	0.13
335.558	0.13
336.02	0.13
336.482	0.13
336.944	0.13
337.406	0.13
337.868	0.13
338.331	0.13
338.793	0.13
339.255	0.13
339.717	0.13
340.178	0.12
340.64	0.12
341.102	0.12
341.564	0.12
342.026	0.12
342.488	0.12
342.949	0.12
343.411	0.12
343.873	0.12
344.335	0.12
344.796	0.12
345.258	0.12
345.719	0.12
346.181	0.12
346.643	0.12
347.104	0.12
347.566	0.12
348.027	0.12
348.488	0.12
348.95	0.12
349.411	0.12
349.873	0.12
350.334	0.12
350.795	0.12
351.256	0.12
351.718	0.12
352.179	0.12
352.64	0.12
353.101	0.12
353.562	0.12
354.023	0.12
354.484	0.12
354.945	0.11
355.406	0.11
355.867	0.11
356.328	0.11
356.789	0.11
357.25	0.11
357.711	0.11
358.172	0.11
358.633	0.11
359.093	0.11
359.554	0.11
360.015	0.11
360.476	0.12
360.936	0.12
361.397	0.12
361.858	0.12
362.318	0.12
362.779	0.12
363.239	0.12
363.7	0.12
364.16	0.12
364.621	0.12
365.081	0.12
365.541	0.12
366.002	0.12
366.462	0.11
366.922	0.11
367.383	0.11
367.843	0.11
368.303	0.11
368.763	0.11
369.223	0.11
369.684	0.11
370.144	0.11
370.604	0.11
371.064	0.11
371.524	0.11
371.984	0.11
372.444	0.11
372.904	0.11
373.363	0.11
373.823	0.11
374.283	0.11
374.743	0.11
375.203	0.11
375.663	0.11
376.122	0.11
376.582	0.11
377.042	0.11
377.501	0.11
377.961	0.11
378.42	0.11
378.88	0.11
379.34	0.11
379.799	0.11
380.259	0.11
380.718	0.11
381.177	0.11
381.637	0.11
382.096	0.11
382.555	0.11
383.015	0.11
383.474	0.11
383.933	0.11
384.393	0.11
384.852	0.11
385.311	0.11
385.77	0.11
386.229	0.11
386.688	0.11
387.147	0.11
387.606	0.11
388.065	0.11
388.524	0.11
388.983	0.11
389.442	0.11
389.901	0.11
390.36	0.11
390.819	0.11
391.277	0.11
391.736	0.11
392.195	0.12
392.654	0.12
393.112	0.12
393.571	0.12
394.03	0.12
394.488	0.11
394.947	0.11
395.405	0.11
395.864	0.11
396.322	0.11
396.781	0.11
397.239	0.12
397.698	0.12
398.156	0.12
398.614	0.12
399.073	0.12
399.531	0.12
399.989	0.12
400.447	0.12
400.905	0.12
401.364	0.11
401.822	0.11
402.28	0.11
402.738	0.11
403.196	0.11
403.654	0.11
404.112	0.11
404.57	0.11
405.028	0.11
405.486	0.11
405.944	0.11
406.402	0.11
406.859	0.11
407.317	0.11
407.775	0.11
408.233	0.11
408.691	0.11
409.148	0.11
409.606	0.11
410.064	0.11
410.521	0.11
410.979	0.11
411.436	0.11
411.894	0.11
412.351	0.11
412.809	0.11
413.266	0.11
413.724	0.11
414.181	0.11
414.638	0.11
415.096	0.11
415.553	0.11
416.01	0.11
416.467	0.11
416.925	0.11
417.382	0.11
417.839	0.11
418.296	0.11
418.753	0.11
419.21	0.11
419.667	0.11
420.124	0.11
420.581	0.11
421.038	0.11
421.495	0.11
421.952	0.11
422.409	0.11
422.866	0.11
423.322	0.11
423.779	0.11
424.236	0.11
424.693	0.11
425.149	0.11
425.606	0.11
426.063	0.11
426.519	0.11
426.976	0.11
427.433	0.11
427.889	0.11
428.346	0.11
428.802	0.11
429.258	0.11
429.715	0.11
430.171	0.11
430.628	0.11
431.084	0.11
431.54	0.11
431.997	0.11
432.453	0.11
432.909	0.11
433.365	0.11
433.821	0.11
434.277	0.11
434.734	0.11
435.19	0.11
435.646	0.11
436.102	0.11
436.558	0.11
437.014	0.11
437.47	0.11
437.925	0.11
438.381	0.11
438.837	0.11
439.293	0.11
439.749	0.11
440.205	0.11
440.66	0.11
441.116	0.11
441.572	0.11
442.027	0.11
442.483	0.11
442.939	0.11
443.394	0.11
443.85	0.11
444.305	0.11
444.761	0.11
445.216	0.11
445.672	0.11
446.127	0.11
446.582	0.11
447.038	0.11
447.493	0.11
447.948	0.11
448.403	0.11
448.859	0.11
449.314	0.11
449.769	0.11
450.224	0.11
450.679	0.11
451.134	0.11
451.589	0.11
452.044	0.11
452.499	0.11
452.954	0.11
453.409	0.11
453.864	0.1
454.319	0.1
454.774	0.1
455.229	0.1
455.684	0.1
456.138	0.1
456.593	0.1
457.048	0.1
457.503	0.1
457.957	0.1
458.412	0.1
458.866	0.1
459.321	0.1
459.776	0.1
460.23	0.1
460.685	0.1
461.139	0.1
461.593	0.1
462.048	0.1
462.502	0.1
462.957	0.1
463.411	0.1
463.865	0.1
464.319	0.1
464.774	0.1
465.228	0.1
465.682	0.1
466.136	0.1
466.59	0.1
467.044	0.1
467.499	0.1
467.953	0.1
468.407	0.1
468.861	0.1
469.315	0.09
469.768	0.09
470.222	0.09
470.676	0.09
471.13	0.09
471.584	0.09
472.038	0.09
472.491	0.09
472.945	0.09
473.399	0.09
473.852	0.09
474.306	0.09
474.76	0.09
475.213	0.09
475.667	0.09
476.12	0.09
476.574	0.09
477.027	0.09
477.481	0.09
477.934	0.09
478.388	0.09
478.841	0.09
479.294	0.09
479.748	0.09
480.201	0.09
480.654	0.09
481.107	0.09
481.561	0.09
482.014	0.09
482.467	0.1
482.92	0.1
483.373	0.1
483.826	0.1
484.279	0.1
484.732	0.1
485.185	0.1
485.638	0.1
486.091	0.1
486.544	0.1
486.997	0.1
487.449	0.1
487.902	0.1
488.355	0.1
488.808	0.1
489.26	0.1
489.713	0.09
490.166	0.09
490.618	0.09
491.071	0.09
491.523	0.09
491.976	0.09
492.429	0.09
492.881	0.09
493.333	0.09
493.786	0.09
494.238	0.09
494.691	0.09
495.143	0.09
495.595	0.09
496.048	0.09
496.5	0.09
496.952	0.09
497.404	0.09
497.856	0.09
498.309	0.09
498.761	0.09
499.213	0.09
499.665	0.09
500.117	0.09
500.569	0.09
501.021	0.09
501.473	0.09
501.925	0.09
502.377	0.09
502.828	0.1
503.28	0.1
503.732	0.1
504.184	0.1
504.636	0.1
505.087	0.1
505.539	0.1
505.991	0.1
506.442	0.1
506.894	0.1
507.345	0.09
507.797	0.09
508.249	0.09
508.7	0.09
509.151	0.09
509.603	0.09
510.054	0.09
510.506	0.09
510.957	0.09
511.408	0.09
511.86	0.09
512.311	0.09
512.762	0.09
513.213	0.09
513.665	0.09
514.116	0.09
514.567	0.09
515.018	0.09
515.469	0.09
515.92	0.09
516.371	0.09
516.822	0.09
517.273	0.09
517.724	0.09
518.175	0.09
518.626	0.09
519.076	0.09
519.527	0.09
519.978	0.09
520.429	0.09
520.88	0.09
521.33	0.09
521.781	0.08
522.232	0.08
522.682	0.08
523.133	0.08
523.583	0.08
524.034	0.08
524.484	0.08
524.935	0.08
525.385	0.08
525.836	0.08
526.286	0.08
526.736	0.08
527.187	0.08
527.637	0.08
528.087	0.09
528.538	0.09
528.988	0.09
529.438	0.09
529.888	0.09
530.338	0.1
530.788	0.1
531.238	0.1
531.688	0.1
532.139	0.1
532.589	0.1
533.038	0.1
533.488	0.1
533.938	0.1
534.388	0.1
534.838	0.1
535.288	0.11
535.738	0.11
536.187	0.11
536.637	0.11
537.087	0.11
537.537	0.11
537.986	0.11
538.436	0.11
538.885	0.11
539.335	0.11
539.785	0.11
540.234	0.11
540.684	0.11
541.133	0.11
541.582	0.12
542.032	0.12
542.481	0.12
542.931	0.12
543.38	0.12
543.829	0.12
544.278	0.12
544.728	0.12
545.177	0.12
545.626	0.12
546.075	0.12
546.524	0.12
546.973	0.12
547.422	0.12
547.871	0.12
548.32	0.12
548.769	0.12
549.218	0.12
549.667	0.12
550.116	0.12
550.565	0.12
551.014	0.12
551.463	0.12
551.911	0.12
552.36	0.12
552.809	0.12
553.258	0.12
553.706	0.12
554.155	0.12
554.603	0.12
555.052	0.12
555.501	0.12
555.949	0.12
556.398	0.12
556.846	0.12
557.294	0.12
557.743	0.12
558.191	0.12
558.64	0.12
559.088	0.12
559.536	0.12
559.985	0.12
560.433	0.12
560.881	0.12
561.329	0.12
561.777	0.12
562.225	0.12
562.674	0.12
563.122	0.12
563.57	0.12
564.018	0.12
564.466	0.12
564.914	0.12
565.362	0.12
565.809	0.12
566.257	0.12
566.705	0.12
567.153	0.13
567.601	0.13
568.048	0.13
568.496	0.13
568.944	0.13
569.392	0.14
569.839	0.14
570.287	0.14
570.734	0.14
571.182	0.14
571.63	0.15
572.077	0.15
572.525	0.15
572.972	0.15
573.419	0.15
573.867	0.15
574.314	0.15
574.761	0.15
575.209	0.15
575.656	0.15
576.103	0.15
576.551	0.16
576.998	0.16
577.445	0.16
577.892	0.16
578.339	0.16
578.786	0.16
579.233	0.16
579.68	0.16
580.127	0.16
580.574	0.16
581.021	0.16
581.468	0.16
581.915	0.16
582.362	0.16
582.809	0.16
583.255	0.16
583.702	0.16
584.149	0.16
584.596	0.16
585.042	0.16
585.489	0.16
585.936	0.16
586.382	0.16
586.829	0.16
587.275	0.16
587.722	0.16
588.168	0.15
588.615	0.15
589.061	0.15
589.508	0.15
589.954	0.15
590.4	0.15
590.847	0.15
591.293	0.15
591.739	0.15
592.185	0.15
592.632	0.15
593.078	0.15
593.524	0.15
593.97	0.15
594.416	0.15
594.862	0.15
595.308	0.15
595.754	0.15
596.2	0.15
596.646	0.15
597.092	0.15
597.538	0.15
597.984	0.15
598.43	0.15
598.876	0.15
599.321	0.15
599.767	0.15
600.213	0.15
600.659	0.15
601.104	0.15
601.55	0.15
601.995	0.15
602.441	0.15
602.887	0.15
603.332	0.15
603.778	0.15
604.223	0.15
604.668	0.15
605.114	0.15
605.559	0.15
606.005	0.15
606.45	0.15
606.895	0.15
607.341	0.15
607.786	0.15
608.231	0.15
608.676	0.15
609.121	0.15
609.566	0.15
610.012	0.15
610.457	0.15
610.902	0.15
611.347	0.15
611.792	0.15
612.237	0.15
612.682	0.15
613.127	0.15
613.571	0.15
614.016	0.15
614.461	0.15
614.906	0.15
615.351	0.15
615.795	0.14
616.24	0.14
616.685	0.14
617.129	0.14
617.574	0.14
618.019	0.14
618.463	0.14
618.908	0.14
619.352	0.13
619.797	0.13
620.241	0.14
620.686	0.14
621.13	0.14
621.574	0.14
622.019	0.14
622.463	0.14
622.907	0.13
623.352	0.13
623.796	0.13
624.24	0.13
624.684	0.13
625.128	0.13
625.572	0.13
626.016	0.13
626.461	0.13
626.905	0.13
627.349	0.13
627.793	0.13
628.236	0.13
628.68	0.13
629.124	0.13
629.568	0.13
630.012	0.12
630.456	0.12
630.9	0.12
631.343	0.12
631.787	0.12
632.231	0.12
632.674	0.12
633.118	0.12
633.562	0.12
634.005	0.12
634.449	0.12
634.892	0.12
635.336	0.12
635.779	0.12
636.223	0.12
636.666	0.12
637.109	0.12
637.553	0.12
637.996	0.11
638.439	0.11
638.883	0.11
639.326	0.11
639.769	0.11
640.212	0.11
640.655	0.11
641.099	0.11
641.542	0.11
641.985	0.11
642.428	0.11
642.871	0.11
643.314	0.11
643.757	0.11
644.2	0.11
644.643	0.11
645.085	0.12
645.528	0.12
645.971	0.12
646.414	0.12
646.857	0.12
647.299	0.12
647.742	0.12
648.185	0.12
648.627	0.12
649.07	0.12
649.513	0.12
649.955	0.12
650.398	0.12
650.84	0.12
651.283	0.12
651.725	0.12
652.168	0.12
652.61	0.12
653.052	0.12
653.495	0.11
653.937	0.09
654.379	0.08
654.821	0.08
655.264	0.08
655.706	0.08
656.148	0.08
656.59	0.08
657.032	0.08
657.474	0.08
657.916	0.08
658.358	0.09
658.8	0.11
659.242	0.13
659.684	0.12
660.126	0.12
660.568	0.12
661.01	0.12
661.452	0.12
661.894	0.12
662.335	0.12
662.777	0.12
663.219	0.13
663.661	0.13
664.102	0.13
664.544	0.13
664.985	0.13
665.427	0.13
665.869	0.13
666.31	0.13
666.752	0.13
667.193	0.13
667.634	0.13
668.076	0.13
668.517	0.13
668.959	0.13
669.4	0.13
669.841	0.14
670.282	0.14
670.724	0.14
671.165	0.14
671.606	0.14
672.047	0.14
672.488	0.14
672.929	0.14
673.37	0.14
673.811	0.14
674.252	0.14
674.693	0.13
675.134	0.13
675.575	0.13
676.016	0.14
676.457	0.14
676.898	0.14
677.339	0.14
677.78	0.14
678.22	0.14
678.661	0.14
679.102	0.14
679.542	0.14
679.983	0.14
680.424	0.14
680.864	0.14
681.305	0.14
681.745	0.14
682.186	0.15
682.626	0.15
683.067	0.15
683.507	0.15
683.948	0.15
684.388	0.15
684.828	0.15
685.269	0.15
685.709	0.15
686.149	0.15
686.589	0.15
687.029	0.15
687.47	0.15
687.91	0.15
688.35	0.15
688.79	0.15
689.23	0.15
689.67	0.15
690.11	0.15
690.55	0.15
690.99	0.15
691.43	0.15
691.87	0.15
692.31	0.15
692.749	0.15
693.189	0.16
693.629	0.16
694.069	0.16
694.508	0.16
694.948	0.16
695.388	0.16
695.827	0.16
696.267	0.16
696.706	0.16
697.146	0.16
697.586	0.16
698.025	0.16
698.464	0.16
698.904	0.16
699.343	0.16
699.783	0.16
700.222	0.16
700.661	0.16
701.101	0.16
701.54	0.16
701.979	0.16
702.418	0.16
702.857	0.16
703.297	0.16
703.736	0.16
704.175	0.16
704.614	0.16
705.053	0.16
705.492	0.16
705.931	0.16
706.37	0.16
706.809	0.17
707.248	0.17
707.687	0.17
708.125	0.17
708.564	0.17
709.003	0.17
709.442	0.17
709.88	0.16
710.319	0.16
710.758	0.16
711.196	0.16
711.635	0.16
712.074	0.16
712.512	0.16
712.951	0.17
713.389	0.17
713.828	0.17
714.266	0.16
714.705	0.16
715.143	0.16
715.581	0.16
716.02	0.16
716.458	0.16
716.896	0.16
717.334	0.16
717.773	0.16
718.211	0.16
718.649	0.16
719.087	0.16
719.525	0.16
719.963	0.16
720.401	0.16
720.839	0.16
721.277	0.16
721.715	0.16
722.153	0.16
722.591	0.16
723.029	0.16
723.467	0.16
723.905	0.16
724.342	0.16
724.78	0.16
725.218	0.16
725.656	0.16
726.093	0.16
726.531	0.16
726.969	0.16
727.406	0.16
727.844	0.16
728.281	0.16
728.719	0.16
729.156	0.16
729.594	0.16
730.031	0.16
730.469	0.16
730.906	0.16
731.343	0.16
731.781	0.16
732.218	0.16
732.655	0.16
733.092	0.16
733.53	0.16
733.967	0.16
734.404	0.16
734.841	0.16
735.278	0.16
735.715	0.16
736.152	0.16
736.589	0.16
737.026	0.16
737.463	0.16
737.9	0.16
738.337	0.16
738.774	0.16
739.211	0.15
739.647	0.15
740.084	0.15
740.521	0.15
740.958	0.15
741.394	0.15
741.831	0.15
742.268	0.14
742.704	0.14
743.141	0.14
743.577	0.14
744.014	0.14
744.45	0.14
744.887	0.14
745.323	0.14
745.76	0.14
746.196	0.14
746.632	0.14
747.069	0.14
747.505	0.14
747.941	0.14
748.378	0.14
748.814	0.14
749.25	0.15
749.686	0.15
750.122	0.15
750.558	0.15
750.994	0.15
751.43	0.15
751.866	0.15
752.302	0.15
752.738	0.15
753.174	0.15
753.61	0.15
754.046	0.15
754.482	0.15
754.918	0.15
755.354	0.15
755.789	0.15
756.225	0.15
756.661	0.15
757.096	0.15
757.532	0.15
757.968	0.15
758.403	0.15
758.839	0.15
759.274	0.15
759.71	0.15
760.145	0.15
760.581	0.15
761.016	0.15
761.452	0.15
761.887	0.15
762.322	0.15
762.758	0.15
763.193	0.15
763.628	0.14
764.063	0.14
764.499	0.14
764.934	0.14
765.369	0.14
765.804	0.14
766.239	0.14
766.674	0.14
767.109	0.14
767.544	0.14
767.979	0.13
768.414	0.13
768.849	0.13
769.284	0.13
769.719	0.13
770.154	0.13
770.588	0.13
771.023	0.13
771.458	0.13
771.893	0.13
772.327	0.13
772.762	0.13
773.197	0.12
773.631	0.12
774.066	0.12
774.5	0.12
774.935	0.12
775.369	0.12
775.804	0.12
776.238	0.12
776.673	0.12
777.107	0.12
777.541	0.12
777.976	0.12
778.41	0.12
778.844	0.12
779.279	0.12
779.713	0.12
780.147	0.12
780.581	0.12
781.015	0.12
781.449	0.12
781.883	0.12
782.317	0.12
782.751	0.12
783.185	0.12
783.619	0.12
784.053	0.12
784.487	0.12
784.921	0.12
785.355	0.12
785.789	0.12
786.223	0.12
786.656	0.12
787.09	0.12
787.524	0.12
787.957	0.12
788.391	0.12
788.825	0.12
789.258	0.12
789.692	0.12
790.125	0.12
790.559	0.12
790.992	0.12
791.426	0.12
791.859	0.12
792.293	0.13
792.726	0.13
793.159	0.13
793.593	0.13
794.026	0.13
794.459	0.13
794.892	0.13
795.326	0.13
795.759	0.13
796.192	0.13
796.625	0.12
797.058	0.12
797.491	0.12
797.924	0.12
798.357	0.12
798.79	0.12
799.223	0.12
799.656	0.12
800.089	0.12
800.522	0.12
800.955	0.12
801.387	0.12
801.82	0.12
802.253	0.11
802.686	0.11
803.118	0.11
803.551	0.11
803.984	0.12
804.416	0.12
804.849	0.12
805.281	0.12
805.714	0.12
806.146	0.12
806.579	0.12
807.011	0.12
807.444	0.12
807.876	0.12
808.308	0.12
808.741	0.12
809.173	0.11
809.605	0.11
810.037	0.11
810.47	0.11
810.902	0.11
811.334	0.11
811.766	0.11
812.198	0.11
812.63	0.12
813.062	0.12
813.494	0.12
813.926	0.12
814.358	0.12
814.79	0.12
815.222	0.12
815.654	0.12
816.086	0.12
816.518	0.12
816.949	0.12
817.381	0.12
817.813	0.12
818.245	0.12
818.676	0.12
819.108	0.12
819.54	0.12
819.971	0.12
820.403	0.12
820.834	0.12
821.266	0.12
821.697	0.12
822.129	0.13
822.56	0.13
822.991	0.13
823.423	0.13
823.854	0.13
824.286	0.13
824.717	0.13
825.148	0.14
825.579	0.14
826.01	0.14
826.442	0.14
826.873	0.14
827.304	0.15
827.735	0.15
828.166	0.15
828.597	0.15
829.028	0.15
829.459	0.15
829.89	0.15
830.321	0.15
830.752	0.16
831.183	0.16
831.613	0.16
832.044	0.16
832.475	0.16
832.906	0.16
833.336	0.17
833.767	0.17
834.198	0.17
834.628	0.17
835.059	0.17
835.49	0.17
835.92	0.17
836.351	0.17
836.781	0.17
837.212	0.17
837.642	0.17
838.072	0.17
838.503	0.17
838.933	0.18
839.364	0.18
839.794	0.18
840.224	0.18
840.654	0.18
841.085	0.18
841.515	0.18
841.945	0.18
842.375	0.18
842.805	0.18
843.235	0.18
843.665	0.18
844.095	0.19
844.525	0.19
844.955	0.19
845.385	0.19
845.815	0.19
846.245	0.19
846.675	0.19
847.105	0.19
847.534	0.19
847.964	0.19
848.394	0.19
848.824	0.2
849.253	0.2
849.683	0.2
850.112	0.2
850.542	0.2
850.972	0.2
851.401	0.2
851.831	0.2
852.26	0.2
852.69	0.2
853.119	0.2
853.548	0.2
853.978	0.2
854.407	0.2
854.836	0.2
855.266	0.2
855.695	0.2
856.124	0.2
856.553	0.2
856.983	0.2
857.412	0.2
857.841	0.2
858.27	0.2
858.699	0.2
859.128	0.2
859.557	0.2
859.986	0.2
860.415	0.2
860.844	0.2
861.273	0.2
861.702	0.2
862.13	0.2
862.559	0.21
862.988	0.21
863.417	0.21
863.845	0.21
864.274	0.21
864.703	0.21
865.131	0.21
865.56	0.21
865.989	0.21
866.417	0.21
866.846	0.21
867.274	0.21
867.703	0.21
868.131	0.21
868.559	0.21
868.988	0.21
869.416	0.21
869.844	0.21
870.273	0.21
870.701	0.21
871.129	0.21
871.557	0.21
871.986	0.21
872.414	0.22
872.842	0.22
873.27	0.22
873.698	0.22
874.126	0.22
874.554	0.22
874.982	0.22
875.41	0.22
875.838	0.22
876.266	0.22
876.694	0.22
877.122	0.22
877.549	0.22
877.977	0.22
878.405	0.22
878.833	0.22
879.26	0.22
879.688	0.22
880.116	0.22
880.543	0.22
880.971	0.22
881.399	0.21
881.826	0.21
882.254	0.21
