Data from 2024-02-06-100ns-20nr-25nacl-100h2o-7bp2-40to10hyt-dark-0_5cpm_Absorbance__85__00085.txt Node

Date: Tue Feb 06 10:54:29 CET 2024
User: Laser008
Spectrometer: MAYP115816
Trigger mode: 0
Integration Time (sec): 2.000000E-1
Scans to average: 10
Electric dark correction enabled: true
Nonlinearity correction enabled: true
Boxcar width: 5
XAxis mode: Wavelengths
Number of Pixels in Spectrum: 2068
>>>>>Begin Spectral Data<<<<<
198.914	-0.28
199.384	-0.25
199.855	-0.19
200.325	-0.15
200.796	-0.12
201.266	-0.11
201.737	-0.1
202.207	-0.09
202.677	-0.09
203.147	-0.08
203.618	-0.07
204.088	-0.06
204.558	-0.05
205.028	-0.05
205.498	-0.05
205.968	-0.05
206.439	-0.05
206.909	-0.05
207.379	-0.05
207.849	-0.05
208.319	-0.05
208.789	-0.05
209.258	-0.05
209.728	-0.05
210.198	-0.05
210.668	-0.05
211.138	-0.05
211.608	-0.05
212.077	-0.05
212.547	-0.05
213.017	-0.05
213.486	-0.06
213.956	-0.06
214.426	-0.05
214.895	-0.05
215.365	-0.05
215.834	-0.05
216.304	-0.05
216.773	-0.05
217.243	-0.05
217.712	-0.04
218.181	-0.04
218.651	-0.04
219.12	-0.04
219.589	-0.03
220.058	-0.04
220.528	-0.03
220.997	-0.03
221.466	-0.03
221.935	-0.03
222.404	-0.03
222.873	-0.02
223.342	-0.02
223.812	-0.02
224.281	-0.02
224.749	-0.02
225.218	-0.01
225.687	-0.01
226.156	0
226.625	0.01
227.094	0.01
227.563	0.02
228.031	0.03
228.5	0.04
228.969	0.05
229.438	0.07
229.906	0.08
230.375	0.1
230.844	0.12
231.312	0.13
231.781	0.14
232.249	0.16
232.718	0.18
233.186	0.2
233.655	0.21
234.123	0.23
234.591	0.24
235.06	0.25
235.528	0.26
235.996	0.27
236.465	0.28
236.933	0.29
237.401	0.3
237.869	0.3
238.337	0.31
238.805	0.32
239.274	0.32
239.742	0.32
240.21	0.33
240.678	0.33
241.146	0.34
241.614	0.34
242.081	0.34
242.549	0.34
243.017	0.35
243.485	0.35
243.953	0.35
244.421	0.36
244.888	0.36
245.356	0.36
245.824	0.36
246.291	0.37
246.759	0.37
247.227	0.37
247.694	0.37
248.162	0.38
248.629	0.38
249.097	0.38
249.564	0.38
250.032	0.38
250.499	0.39
250.967	0.39
251.434	0.39
251.901	0.39
252.369	0.39
252.836	0.39
253.303	0.4
253.77	0.4
254.237	0.4
254.705	0.4
255.172	0.4
255.639	0.4
256.106	0.4
256.573	0.41
257.04	0.41
257.507	0.41
257.974	0.41
258.441	0.41
258.908	0.41
259.375	0.41
259.841	0.41
260.308	0.41
260.775	0.41
261.242	0.41
261.709	0.41
262.175	0.41
262.642	0.41
263.109	0.41
263.575	0.41
264.042	0.41
264.508	0.4
264.975	0.4
265.441	0.4
265.908	0.4
266.374	0.4
266.841	0.4
267.307	0.4
267.773	0.4
268.24	0.4
268.706	0.39
269.172	0.39
269.639	0.39
270.105	0.39
270.571	0.39
271.037	0.38
271.503	0.38
271.969	0.38
272.435	0.38
272.902	0.38
273.368	0.37
273.834	0.37
274.3	0.37
274.765	0.37
275.231	0.37
275.697	0.36
276.163	0.36
276.629	0.36
277.095	0.36
277.56	0.35
278.026	0.35
278.492	0.35
278.958	0.35
279.423	0.34
279.889	0.34
280.354	0.34
280.82	0.34
281.286	0.33
281.751	0.33
282.217	0.33
282.682	0.33
283.147	0.32
283.613	0.32
284.078	0.32
284.544	0.32
285.009	0.32
285.474	0.31
285.939	0.31
286.405	0.31
286.87	0.31
287.335	0.31
287.8	0.3
288.265	0.3
288.73	0.3
289.195	0.3
289.66	0.3
290.125	0.3
290.59	0.29
291.055	0.29
291.52	0.29
291.985	0.29
292.45	0.29
292.915	0.29
293.38	0.29
293.844	0.29
294.309	0.28
294.774	0.28
295.239	0.28
295.703	0.28
296.168	0.28
296.632	0.28
297.097	0.28
297.562	0.28
298.026	0.28
298.491	0.28
298.955	0.28
299.419	0.28
299.884	0.27
300.348	0.27
300.813	0.27
301.277	0.27
301.741	0.27
302.205	0.27
302.67	0.27
303.134	0.27
303.598	0.27
304.062	0.27
304.526	0.27
304.99	0.27
305.454	0.27
305.919	0.27
306.383	0.27
306.847	0.27
307.31	0.27
307.774	0.27
308.238	0.26
308.702	0.26
309.166	0.26
309.63	0.26
310.094	0.26
310.557	0.26
311.021	0.26
311.485	0.26
311.948	0.26
312.412	0.26
312.876	0.26
313.339	0.26
313.803	0.26
314.266	0.26
314.73	0.26
315.193	0.26
315.657	0.26
316.12	0.26
316.584	0.26
317.047	0.26
317.51	0.26
317.973	0.25
318.437	0.25
318.9	0.25
319.363	0.25
319.826	0.25
320.29	0.25
320.753	0.25
321.216	0.25
321.679	0.25
322.142	0.25
322.605	0.25
323.068	0.25
323.531	0.25
323.994	0.25
324.457	0.25
324.92	0.25
325.382	0.25
325.845	0.25
326.308	0.25
326.771	0.25
327.233	0.25
327.696	0.25
328.159	0.25
328.622	0.25
329.084	0.24
329.547	0.24
330.009	0.24
330.472	0.24
330.934	0.24
331.397	0.24
331.859	0.24
332.322	0.24
332.784	0.24
333.246	0.24
333.709	0.24
334.171	0.24
334.633	0.24
335.096	0.24
335.558	0.24
336.02	0.24
336.482	0.24
336.944	0.24
337.406	0.24
337.868	0.24
338.331	0.24
338.793	0.24
339.255	0.24
339.717	0.24
340.178	0.24
340.64	0.24
341.102	0.23
341.564	0.23
342.026	0.23
342.488	0.23
342.949	0.23
343.411	0.23
343.873	0.23
344.335	0.23
344.796	0.23
345.258	0.23
345.719	0.23
346.181	0.23
346.643	0.23
347.104	0.23
347.566	0.23
348.027	0.23
348.488	0.23
348.95	0.23
349.411	0.23
349.873	0.23
350.334	0.23
350.795	0.23
351.256	0.23
351.718	0.23
352.179	0.23
352.64	0.23
353.101	0.23
353.562	0.23
354.023	0.23
354.484	0.23
354.945	0.23
355.406	0.23
355.867	0.23
356.328	0.23
356.789	0.23
357.25	0.23
357.711	0.23
358.172	0.23
358.633	0.23
359.093	0.23
359.554	0.23
360.015	0.23
360.476	0.23
360.936	0.23
361.397	0.23
361.858	0.23
362.318	0.23
362.779	0.23
363.239	0.23
363.7	0.23
364.16	0.23
364.621	0.23
365.081	0.23
365.541	0.23
366.002	0.23
366.462	0.23
366.922	0.23
367.383	0.23
367.843	0.23
368.303	0.23
368.763	0.23
369.223	0.23
369.684	0.23
370.144	0.23
370.604	0.23
371.064	0.23
371.524	0.23
371.984	0.23
372.444	0.23
372.904	0.23
373.363	0.23
373.823	0.23
374.283	0.23
374.743	0.22
375.203	0.22
375.663	0.22
376.122	0.22
376.582	0.22
377.042	0.22
377.501	0.22
377.961	0.22
378.42	0.22
378.88	0.22
379.34	0.22
379.799	0.22
380.259	0.22
380.718	0.22
381.177	0.22
381.637	0.22
382.096	0.22
382.555	0.22
383.015	0.22
383.474	0.22
383.933	0.22
384.393	0.22
384.852	0.22
385.311	0.22
385.77	0.22
386.229	0.22
386.688	0.22
387.147	0.22
387.606	0.22
388.065	0.22
388.524	0.22
388.983	0.22
389.442	0.22
389.901	0.22
390.36	0.22
390.819	0.22
391.277	0.22
391.736	0.22
392.195	0.22
392.654	0.22
393.112	0.22
393.571	0.22
394.03	0.22
394.488	0.22
394.947	0.22
395.405	0.22
395.864	0.22
396.322	0.22
396.781	0.22
397.239	0.22
397.698	0.22
398.156	0.22
398.614	0.22
399.073	0.22
399.531	0.22
399.989	0.22
400.447	0.22
400.905	0.22
401.364	0.22
401.822	0.22
402.28	0.22
402.738	0.21
403.196	0.21
403.654	0.21
404.112	0.21
404.57	0.21
405.028	0.21
405.486	0.21
405.944	0.21
406.402	0.21
406.859	0.21
407.317	0.21
407.775	0.21
408.233	0.21
408.691	0.21
409.148	0.21
409.606	0.21
410.064	0.21
410.521	0.21
410.979	0.21
411.436	0.21
411.894	0.21
412.351	0.21
412.809	0.21
413.266	0.21
413.724	0.21
414.181	0.21
414.638	0.21
415.096	0.21
415.553	0.21
416.01	0.21
416.467	0.21
416.925	0.21
417.382	0.21
417.839	0.21
418.296	0.21
418.753	0.21
419.21	0.21
419.667	0.21
420.124	0.21
420.581	0.21
421.038	0.21
421.495	0.21
421.952	0.21
422.409	0.21
422.866	0.21
423.322	0.21
423.779	0.21
424.236	0.21
424.693	0.21
425.149	0.21
425.606	0.21
426.063	0.21
426.519	0.21
426.976	0.21
427.433	0.21
427.889	0.21
428.346	0.21
428.802	0.21
429.258	0.21
429.715	0.21
430.171	0.21
430.628	0.21
431.084	0.21
431.54	0.21
431.997	0.21
432.453	0.21
432.909	0.21
433.365	0.21
433.821	0.21
434.277	0.21
434.734	0.21
435.19	0.21
435.646	0.21
436.102	0.21
436.558	0.21
437.014	0.21
437.47	0.21
437.925	0.21
438.381	0.21
438.837	0.2
439.293	0.2
439.749	0.2
440.205	0.2
440.66	0.2
441.116	0.2
441.572	0.2
442.027	0.2
442.483	0.2
442.939	0.2
443.394	0.2
443.85	0.2
444.305	0.2
444.761	0.2
445.216	0.2
445.672	0.2
446.127	0.2
446.582	0.2
447.038	0.2
447.493	0.2
447.948	0.2
448.403	0.2
448.859	0.2
449.314	0.2
449.769	0.2
450.224	0.2
450.679	0.2
451.134	0.2
451.589	0.2
452.044	0.2
452.499	0.2
452.954	0.2
453.409	0.2
453.864	0.2
454.319	0.2
454.774	0.2
455.229	0.2
455.684	0.2
456.138	0.2
456.593	0.2
457.048	0.2
457.503	0.2
457.957	0.2
458.412	0.2
458.866	0.2
459.321	0.2
459.776	0.2
460.23	0.2
460.685	0.2
461.139	0.2
461.593	0.2
462.048	0.2
462.502	0.2
462.957	0.2
463.411	0.2
463.865	0.2
464.319	0.2
464.774	0.2
465.228	0.2
465.682	0.2
466.136	0.2
466.59	0.2
467.044	0.2
467.499	0.2
467.953	0.2
468.407	0.2
468.861	0.2
469.315	0.2
469.768	0.2
470.222	0.2
470.676	0.2
471.13	0.2
471.584	0.21
472.038	0.21
472.491	0.21
472.945	0.21
473.399	0.21
473.852	0.21
474.306	0.21
474.76	0.21
475.213	0.21
475.667	0.21
476.12	0.21
476.574	0.21
477.027	0.21
477.481	0.21
477.934	0.21
478.388	0.21
478.841	0.21
479.294	0.21
479.748	0.21
480.201	0.21
480.654	0.21
481.107	0.21
481.561	0.21
482.014	0.21
482.467	0.21
482.92	0.21
483.373	0.21
483.826	0.22
484.279	0.22
484.732	0.22
485.185	0.22
485.638	0.22
486.091	0.22
486.544	0.22
486.997	0.22
487.449	0.22
487.902	0.22
488.355	0.22
488.808	0.22
489.26	0.23
489.713	0.23
490.166	0.23
490.618	0.23
491.071	0.23
491.523	0.23
491.976	0.23
492.429	0.23
492.881	0.23
493.333	0.23
493.786	0.23
494.238	0.24
494.691	0.24
495.143	0.24
495.595	0.24
496.048	0.24
496.5	0.24
496.952	0.24
497.404	0.24
497.856	0.24
498.309	0.25
498.761	0.25
499.213	0.25
499.665	0.25
500.117	0.25
500.569	0.25
501.021	0.25
501.473	0.26
501.925	0.26
502.377	0.26
502.828	0.26
503.28	0.26
503.732	0.26
504.184	0.26
504.636	0.27
505.087	0.27
505.539	0.27
505.991	0.27
506.442	0.27
506.894	0.27
507.345	0.27
507.797	0.28
508.249	0.28
508.7	0.28
509.151	0.28
509.603	0.28
510.054	0.28
510.506	0.28
510.957	0.28
511.408	0.29
511.86	0.29
512.311	0.29
512.762	0.29
513.213	0.29
513.665	0.29
514.116	0.29
514.567	0.29
515.018	0.29
515.469	0.29
515.92	0.29
516.371	0.3
516.822	0.3
517.273	0.3
517.724	0.3
518.175	0.3
518.626	0.3
519.076	0.3
519.527	0.3
519.978	0.3
520.429	0.3
520.88	0.3
521.33	0.3
521.781	0.3
522.232	0.3
522.682	0.31
523.133	0.31
523.583	0.31
524.034	0.31
524.484	0.31
524.935	0.31
525.385	0.31
525.836	0.31
526.286	0.31
526.736	0.31
527.187	0.31
527.637	0.31
528.087	0.31
528.538	0.31
528.988	0.31
529.438	0.31
529.888	0.31
530.338	0.31
530.788	0.31
531.238	0.31
531.688	0.31
532.139	0.31
532.589	0.31
533.038	0.31
533.488	0.31
533.938	0.31
534.388	0.31
534.838	0.31
535.288	0.31
535.738	0.31
536.187	0.3
536.637	0.3
537.087	0.3
537.537	0.3
537.986	0.3
538.436	0.3
538.885	0.3
539.335	0.3
539.785	0.3
540.234	0.3
540.684	0.3
541.133	0.3
541.582	0.3
542.032	0.3
542.481	0.3
542.931	0.3
543.38	0.3
543.829	0.3
544.278	0.3
544.728	0.3
545.177	0.29
545.626	0.29
546.075	0.29
546.524	0.29
546.973	0.29
547.422	0.29
547.871	0.29
548.32	0.29
548.769	0.29
549.218	0.29
549.667	0.29
550.116	0.29
550.565	0.29
551.014	0.28
551.463	0.28
551.911	0.28
552.36	0.28
552.809	0.28
553.258	0.28
553.706	0.28
554.155	0.28
554.603	0.28
555.052	0.28
555.501	0.28
555.949	0.28
556.398	0.28
556.846	0.27
557.294	0.27
557.743	0.27
558.191	0.27
558.64	0.27
559.088	0.27
559.536	0.27
559.985	0.27
560.433	0.27
560.881	0.27
561.329	0.27
561.777	0.27
562.225	0.27
562.674	0.26
563.122	0.26
563.57	0.26
564.018	0.26
564.466	0.26
564.914	0.26
565.362	0.26
565.809	0.26
566.257	0.26
566.705	0.26
567.153	0.26
567.601	0.25
568.048	0.25
568.496	0.25
568.944	0.25
569.392	0.25
569.839	0.25
570.287	0.25
570.734	0.25
571.182	0.25
571.63	0.25
572.077	0.25
572.525	0.25
572.972	0.25
573.419	0.24
573.867	0.24
574.314	0.24
574.761	0.24
575.209	0.24
575.656	0.24
576.103	0.24
576.551	0.24
576.998	0.24
577.445	0.24
577.892	0.24
578.339	0.24
578.786	0.24
579.233	0.24
579.68	0.23
580.127	0.23
580.574	0.23
581.021	0.23
581.468	0.23
581.915	0.23
582.362	0.23
582.809	0.23
583.255	0.23
583.702	0.23
584.149	0.23
584.596	0.23
585.042	0.23
585.489	0.22
585.936	0.22
586.382	0.22
586.829	0.22
587.275	0.22
587.722	0.22
588.168	0.22
588.615	0.22
589.061	0.22
589.508	0.22
589.954	0.22
590.4	0.22
590.847	0.22
591.293	0.21
591.739	0.21
592.185	0.21
592.632	0.21
593.078	0.21
593.524	0.21
593.97	0.21
594.416	0.21
594.862	0.21
595.308	0.21
595.754	0.21
596.2	0.21
596.646	0.21
597.092	0.21
597.538	0.2
597.984	0.2
598.43	0.2
598.876	0.2
599.321	0.2
599.767	0.2
600.213	0.2
600.659	0.2
601.104	0.2
601.55	0.2
601.995	0.2
602.441	0.2
602.887	0.2
603.332	0.2
603.778	0.2
604.223	0.2
604.668	0.19
605.114	0.19
605.559	0.19
606.005	0.19
606.45	0.19
606.895	0.19
607.341	0.19
607.786	0.19
608.231	0.19
608.676	0.19
609.121	0.19
609.566	0.19
610.012	0.19
610.457	0.19
610.902	0.19
611.347	0.19
611.792	0.19
612.237	0.19
612.682	0.19
613.127	0.19
613.571	0.19
614.016	0.19
614.461	0.19
614.906	0.19
615.351	0.19
615.795	0.19
616.24	0.18
616.685	0.18
617.129	0.18
617.574	0.18
618.019	0.18
618.463	0.18
618.908	0.18
619.352	0.18
619.797	0.18
620.241	0.18
620.686	0.18
621.13	0.18
621.574	0.18
622.019	0.18
622.463	0.18
622.907	0.18
623.352	0.18
623.796	0.18
624.24	0.18
624.684	0.18
625.128	0.18
625.572	0.18
626.016	0.18
626.461	0.18
626.905	0.18
627.349	0.18
627.793	0.18
628.236	0.18
628.68	0.18
629.124	0.18
629.568	0.18
630.012	0.18
630.456	0.18
630.9	0.18
631.343	0.18
631.787	0.18
632.231	0.18
632.674	0.18
633.118	0.18
633.562	0.18
634.005	0.18
634.449	0.18
634.892	0.19
635.336	0.19
635.779	0.19
636.223	0.19
636.666	0.19
637.109	0.19
637.553	0.19
637.996	0.19
638.439	0.19
638.883	0.19
639.326	0.19
639.769	0.19
640.212	0.2
640.655	0.2
641.099	0.2
641.542	0.2
641.985	0.2
642.428	0.2
642.871	0.2
643.314	0.2
643.757	0.21
644.2	0.21
644.643	0.21
645.085	0.21
645.528	0.21
645.971	0.21
646.414	0.21
646.857	0.21
647.299	0.22
647.742	0.22
648.185	0.22
648.627	0.22
649.07	0.22
649.513	0.23
649.955	0.23
650.398	0.23
650.84	0.23
651.283	0.23
651.725	0.24
652.168	0.24
652.61	0.24
653.052	0.24
653.495	0.24
653.937	0.19
654.379	0.15
654.821	0.15
655.264	0.16
655.706	0.16
656.148	0.16
656.59	0.16
657.032	0.16
657.474	0.16
657.916	0.16
658.358	0.16
658.8	0.2
659.242	0.27
659.684	0.28
660.126	0.28
660.568	0.28
661.01	0.28
661.452	0.28
661.894	0.29
662.335	0.29
662.777	0.29
663.219	0.29
663.661	0.3
664.102	0.3
664.544	0.3
664.985	0.3
665.427	0.3
665.869	0.31
666.31	0.31
666.752	0.31
667.193	0.31
667.634	0.31
668.076	0.32
668.517	0.32
668.959	0.32
669.4	0.32
669.841	0.33
670.282	0.33
670.724	0.33
671.165	0.33
671.606	0.33
672.047	0.34
672.488	0.34
672.929	0.34
673.37	0.34
673.811	0.34
674.252	0.34
674.693	0.35
675.134	0.35
675.575	0.35
676.016	0.35
676.457	0.35
676.898	0.35
677.339	0.35
677.78	0.35
678.22	0.36
678.661	0.36
679.102	0.36
679.542	0.36
679.983	0.36
680.424	0.36
680.864	0.36
681.305	0.36
681.745	0.36
682.186	0.36
682.626	0.36
683.067	0.37
683.507	0.37
683.948	0.37
684.388	0.37
684.828	0.37
685.269	0.37
685.709	0.37
686.149	0.37
686.589	0.37
687.029	0.37
687.47	0.37
687.91	0.37
688.35	0.37
688.79	0.37
689.23	0.37
689.67	0.37
690.11	0.37
690.55	0.37
690.99	0.37
691.43	0.37
691.87	0.37
692.31	0.37
692.749	0.37
693.189	0.37
693.629	0.37
694.069	0.37
694.508	0.37
694.948	0.37
695.388	0.37
695.827	0.36
696.267	0.36
696.706	0.36
697.146	0.36
697.586	0.36
698.025	0.36
698.464	0.36
698.904	0.36
699.343	0.36
699.783	0.36
700.222	0.35
700.661	0.35
701.101	0.35
701.54	0.35
701.979	0.35
702.418	0.35
702.857	0.35
703.297	0.35
703.736	0.35
704.175	0.34
704.614	0.34
705.053	0.34
705.492	0.34
705.931	0.34
706.37	0.34
706.809	0.33
707.248	0.33
707.687	0.33
708.125	0.33
708.564	0.33
709.003	0.33
709.442	0.33
709.88	0.32
710.319	0.32
710.758	0.32
711.196	0.32
711.635	0.32
712.074	0.32
712.512	0.31
712.951	0.31
713.389	0.31
713.828	0.31
714.266	0.31
714.705	0.31
715.143	0.31
715.581	0.31
716.02	0.3
716.458	0.3
716.896	0.3
717.334	0.3
717.773	0.3
718.211	0.3
718.649	0.3
719.087	0.3
719.525	0.29
719.963	0.29
720.401	0.29
720.839	0.29
721.277	0.29
721.715	0.29
722.153	0.29
722.591	0.28
723.029	0.28
723.467	0.28
723.905	0.28
724.342	0.28
724.78	0.28
725.218	0.28
725.656	0.27
726.093	0.27
726.531	0.27
726.969	0.27
727.406	0.27
727.844	0.27
728.281	0.27
728.719	0.27
729.156	0.26
729.594	0.26
730.031	0.26
730.469	0.26
730.906	0.26
731.343	0.26
731.781	0.26
732.218	0.26
732.655	0.25
733.092	0.25
733.53	0.25
733.967	0.25
734.404	0.25
734.841	0.25
735.278	0.24
735.715	0.24
736.152	0.24
736.589	0.24
737.026	0.24
737.463	0.24
737.9	0.24
738.337	0.24
738.774	0.24
739.211	0.24
739.647	0.24
740.084	0.23
740.521	0.23
740.958	0.23
741.394	0.23
741.831	0.23
742.268	0.23
742.704	0.23
743.141	0.23
743.577	0.22
744.014	0.22
744.45	0.22
744.887	0.22
745.323	0.22
745.76	0.21
746.196	0.21
746.632	0.21
747.069	0.21
747.505	0.21
747.941	0.21
748.378	0.21
748.814	0.21
749.25	0.21
749.686	0.21
750.122	0.2
750.558	0.2
750.994	0.2
751.43	0.2
751.866	0.2
752.302	0.2
752.738	0.2
753.174	0.2
753.61	0.2
754.046	0.2
754.482	0.2
754.918	0.2
755.354	0.2
755.789	0.19
756.225	0.19
756.661	0.19
757.096	0.19
757.532	0.19
757.968	0.19
758.403	0.19
758.839	0.19
759.274	0.19
759.71	0.19
760.145	0.19
760.581	0.19
761.016	0.19
761.452	0.19
761.887	0.19
762.322	0.19
762.758	0.19
763.193	0.19
763.628	0.18
764.063	0.18
764.499	0.18
764.934	0.18
765.369	0.18
765.804	0.18
766.239	0.18
766.674	0.18
767.109	0.18
767.544	0.18
767.979	0.18
768.414	0.18
768.849	0.18
769.284	0.18
769.719	0.18
770.154	0.18
770.588	0.17
771.023	0.17
771.458	0.17
771.893	0.17
772.327	0.17
772.762	0.17
773.197	0.17
773.631	0.16
774.066	0.16
774.5	0.16
774.935	0.16
775.369	0.16
775.804	0.16
776.238	0.16
776.673	0.15
777.107	0.15
777.541	0.15
777.976	0.15
778.41	0.15
778.844	0.15
779.279	0.15
779.713	0.15
780.147	0.15
780.581	0.15
781.015	0.15
781.449	0.15
781.883	0.15
782.317	0.15
782.751	0.15
783.185	0.14
783.619	0.14
784.053	0.14
784.487	0.14
784.921	0.14
785.355	0.14
785.789	0.14
786.223	0.14
786.656	0.14
787.09	0.14
787.524	0.14
787.957	0.14
788.391	0.14
788.825	0.14
789.258	0.14
789.692	0.14
790.125	0.14
790.559	0.14
790.992	0.14
791.426	0.14
791.859	0.14
792.293	0.14
792.726	0.14
793.159	0.14
793.593	0.14
794.026	0.14
794.459	0.13
794.892	0.13
795.326	0.13
795.759	0.13
796.192	0.13
796.625	0.13
797.058	0.13
797.491	0.13
797.924	0.13
798.357	0.13
798.79	0.13
799.223	0.13
799.656	0.13
800.089	0.13
800.522	0.13
800.955	0.13
801.387	0.12
801.82	0.12
802.253	0.12
802.686	0.12
803.118	0.12
803.551	0.12
803.984	0.12
804.416	0.12
804.849	0.12
805.281	0.12
805.714	0.12
806.146	0.12
806.579	0.12
807.011	0.12
807.444	0.12
807.876	0.12
808.308	0.12
808.741	0.12
809.173	0.12
809.605	0.12
810.037	0.12
810.47	0.12
810.902	0.11
811.334	0.11
811.766	0.11
812.198	0.11
812.63	0.11
813.062	0.11
813.494	0.11
813.926	0.11
814.358	0.11
814.79	0.11
815.222	0.11
815.654	0.11
816.086	0.11
816.518	0.11
816.949	0.11
817.381	0.11
817.813	0.11
818.245	0.11
818.676	0.11
819.108	0.11
819.54	0.11
819.971	0.11
820.403	0.11
820.834	0.11
821.266	0.11
821.697	0.11
822.129	0.11
822.56	0.11
822.991	0.11
823.423	0.11
823.854	0.11
824.286	0.11
824.717	0.11
825.148	0.11
825.579	0.11
826.01	0.11
826.442	0.11
826.873	0.11
827.304	0.11
827.735	0.11
828.166	0.1
828.597	0.1
829.028	0.1
829.459	0.1
829.89	0.1
830.321	0.1
830.752	0.1
831.183	0.1
831.613	0.1
832.044	0.1
832.475	0.1
832.906	0.1
833.336	0.1
833.767	0.1
834.198	0.1
834.628	0.1
835.059	0.1
835.49	0.1
835.92	0.1
836.351	0.1
836.781	0.1
837.212	0.1
837.642	0.1
838.072	0.1
838.503	0.1
838.933	0.1
839.364	0.1
839.794	0.1
840.224	0.1
840.654	0.1
841.085	0.1
841.515	0.1
841.945	0.1
842.375	0.1
842.805	0.1
843.235	0.1
843.665	0.1
844.095	0.09
844.525	0.09
844.955	0.09
845.385	0.09
845.815	0.09
846.245	0.09
846.675	0.09
847.105	0.09
847.534	0.09
847.964	0.09
848.394	0.09
848.824	0.09
849.253	0.09
849.683	0.09
850.112	0.09
850.542	0.09
850.972	0.09
851.401	0.09
851.831	0.09
852.26	0.09
852.69	0.09
853.119	0.09
853.548	0.09
853.978	0.09
854.407	0.09
854.836	0.09
855.266	0.09
855.695	0.09
856.124	0.09
856.553	0.09
856.983	0.09
857.412	0.09
857.841	0.09
858.27	0.09
858.699	0.09
859.128	0.09
859.557	0.09
859.986	0.09
860.415	0.09
860.844	0.09
861.273	0.09
861.702	0.09
862.13	0.09
862.559	0.09
862.988	0.09
863.417	0.09
863.845	0.08
864.274	0.08
864.703	0.08
865.131	0.08
865.56	0.08
865.989	0.08
866.417	0.08
866.846	0.08
867.274	0.08
867.703	0.08
868.131	0.08
868.559	0.08
868.988	0.08
869.416	0.08
869.844	0.08
870.273	0.08
870.701	0.08
871.129	0.08
871.557	0.08
871.986	0.08
872.414	0.08
872.842	0.08
873.27	0.08
873.698	0.08
874.126	0.08
874.554	0.07
874.982	0.07
875.41	0.07
875.838	0.07
876.266	0.07
876.694	0.07
877.122	0.07
877.549	0.07
877.977	0.07
878.405	0.07
878.833	0.07
879.26	0.07
879.688	0.07
880.116	0.07
880.543	0.07
880.971	0.07
881.399	0.07
881.826	0.07
882.254	0.07
882.681	0.07
883.109	0.07
883.536	0.07
883.963	0.07
884.391	0.07
884.818	0.07
