Data from 2024-02-06-100ns-20nr-25nacl-100h2o-7bp2-40to10hyt-dark-0_5cpm_Absorbance__97__00097.txt Node

Date: Tue Feb 06 11:00:29 CET 2024
User: Laser008
Spectrometer: MAYP115816
Trigger mode: 0
Integration Time (sec): 2.000000E-1
Scans to average: 10
Electric dark correction enabled: true
Nonlinearity correction enabled: true
Boxcar width: 5
XAxis mode: Wavelengths
Number of Pixels in Spectrum: 2068
>>>>>Begin Spectral Data<<<<<
198.914	-0.29
199.384	-0.25
199.855	-0.19
200.325	-0.15
200.796	-0.13
201.266	-0.11
201.737	-0.1
202.207	-0.09
202.677	-0.08
203.147	-0.08
203.618	-0.07
204.088	-0.06
204.558	-0.05
205.028	-0.05
205.498	-0.05
205.968	-0.05
206.439	-0.05
206.909	-0.05
207.379	-0.04
207.849	-0.05
208.319	-0.04
208.789	-0.04
209.258	-0.05
209.728	-0.05
210.198	-0.05
210.668	-0.05
211.138	-0.05
211.608	-0.05
212.077	-0.05
212.547	-0.05
213.017	-0.05
213.486	-0.05
213.956	-0.05
214.426	-0.05
214.895	-0.05
215.365	-0.05
215.834	-0.04
216.304	-0.05
216.773	-0.04
217.243	-0.04
217.712	-0.04
218.181	-0.04
218.651	-0.04
219.12	-0.04
219.589	-0.03
220.058	-0.03
220.528	-0.03
220.997	-0.03
221.466	-0.02
221.935	-0.02
222.404	-0.02
222.873	-0.02
223.342	-0.01
223.812	-0.01
224.281	-0
224.749	0
225.218	0
225.687	0.01
226.156	0.02
226.625	0.03
227.094	0.04
227.563	0.05
228.031	0.06
228.5	0.07
228.969	0.08
229.438	0.1
229.906	0.12
230.375	0.14
230.844	0.16
231.312	0.19
231.781	0.2
232.249	0.23
232.718	0.25
233.186	0.27
233.655	0.29
234.123	0.31
234.591	0.33
235.06	0.34
235.528	0.36
235.996	0.37
236.465	0.39
236.933	0.4
237.401	0.41
237.869	0.42
238.337	0.43
238.805	0.44
239.274	0.45
239.742	0.46
240.21	0.46
240.678	0.47
241.146	0.47
241.614	0.48
242.081	0.48
242.549	0.49
243.017	0.49
243.485	0.49
243.953	0.5
244.421	0.5
244.888	0.5
245.356	0.5
245.824	0.51
246.291	0.51
246.759	0.51
247.227	0.51
247.694	0.52
248.162	0.52
248.629	0.52
249.097	0.52
249.564	0.53
250.032	0.53
250.499	0.53
250.967	0.53
251.434	0.54
251.901	0.54
252.369	0.54
252.836	0.54
253.303	0.54
253.77	0.54
254.237	0.54
254.705	0.55
255.172	0.55
255.639	0.55
256.106	0.55
256.573	0.55
257.04	0.55
257.507	0.55
257.974	0.55
258.441	0.55
258.908	0.55
259.375	0.55
259.841	0.55
260.308	0.55
260.775	0.55
261.242	0.55
261.709	0.55
262.175	0.55
262.642	0.55
263.109	0.55
263.575	0.55
264.042	0.54
264.508	0.54
264.975	0.54
265.441	0.54
265.908	0.54
266.374	0.54
266.841	0.54
267.307	0.53
267.773	0.53
268.24	0.53
268.706	0.53
269.172	0.53
269.639	0.52
270.105	0.52
270.571	0.52
271.037	0.51
271.503	0.51
271.969	0.51
272.435	0.51
272.902	0.5
273.368	0.5
273.834	0.5
274.3	0.49
274.765	0.49
275.231	0.49
275.697	0.49
276.163	0.48
276.629	0.48
277.095	0.48
277.56	0.47
278.026	0.47
278.492	0.47
278.958	0.46
279.423	0.46
279.889	0.46
280.354	0.45
280.82	0.45
281.286	0.45
281.751	0.44
282.217	0.44
282.682	0.44
283.147	0.43
283.613	0.43
284.078	0.43
284.544	0.43
285.009	0.42
285.474	0.42
285.939	0.42
286.405	0.41
286.87	0.41
287.335	0.41
287.8	0.41
288.265	0.4
288.73	0.4
289.195	0.4
289.66	0.4
290.125	0.39
290.59	0.39
291.055	0.39
291.52	0.39
291.985	0.39
292.45	0.38
292.915	0.38
293.38	0.38
293.844	0.38
294.309	0.38
294.774	0.37
295.239	0.37
295.703	0.37
296.168	0.37
296.632	0.37
297.097	0.37
297.562	0.37
298.026	0.36
298.491	0.36
298.955	0.36
299.419	0.36
299.884	0.36
300.348	0.36
300.813	0.36
301.277	0.36
301.741	0.35
302.205	0.35
302.67	0.35
303.134	0.35
303.598	0.35
304.062	0.35
304.526	0.35
304.99	0.35
305.454	0.35
305.919	0.35
306.383	0.34
306.847	0.34
307.31	0.34
307.774	0.34
308.238	0.34
308.702	0.34
309.166	0.34
309.63	0.34
310.094	0.34
310.557	0.34
311.021	0.33
311.485	0.33
311.948	0.33
312.412	0.33
312.876	0.33
313.339	0.33
313.803	0.33
314.266	0.33
314.73	0.33
315.193	0.33
315.657	0.32
316.12	0.32
316.584	0.32
317.047	0.32
317.51	0.32
317.973	0.32
318.437	0.32
318.9	0.32
319.363	0.32
319.826	0.32
320.29	0.32
320.753	0.32
321.216	0.32
321.679	0.31
322.142	0.31
322.605	0.31
323.068	0.31
323.531	0.31
323.994	0.31
324.457	0.31
324.92	0.31
325.382	0.31
325.845	0.31
326.308	0.31
326.771	0.31
327.233	0.3
327.696	0.3
328.159	0.3
328.622	0.3
329.084	0.3
329.547	0.3
330.009	0.3
330.472	0.3
330.934	0.3
331.397	0.3
331.859	0.3
332.322	0.3
332.784	0.3
333.246	0.3
333.709	0.3
334.171	0.29
334.633	0.29
335.096	0.29
335.558	0.29
336.02	0.29
336.482	0.29
336.944	0.29
337.406	0.29
337.868	0.29
338.331	0.29
338.793	0.29
339.255	0.29
339.717	0.29
340.178	0.29
340.64	0.29
341.102	0.29
341.564	0.29
342.026	0.29
342.488	0.29
342.949	0.28
343.411	0.28
343.873	0.28
344.335	0.28
344.796	0.28
345.258	0.28
345.719	0.28
346.181	0.28
346.643	0.28
347.104	0.28
347.566	0.28
348.027	0.28
348.488	0.28
348.95	0.28
349.411	0.28
349.873	0.28
350.334	0.28
350.795	0.28
351.256	0.28
351.718	0.28
352.179	0.28
352.64	0.28
353.101	0.28
353.562	0.28
354.023	0.28
354.484	0.28
354.945	0.28
355.406	0.28
355.867	0.28
356.328	0.28
356.789	0.28
357.25	0.28
357.711	0.28
358.172	0.28
358.633	0.27
359.093	0.27
359.554	0.27
360.015	0.27
360.476	0.27
360.936	0.27
361.397	0.28
361.858	0.28
362.318	0.28
362.779	0.28
363.239	0.28
363.7	0.28
364.16	0.27
364.621	0.27
365.081	0.27
365.541	0.27
366.002	0.27
366.462	0.27
366.922	0.27
367.383	0.27
367.843	0.27
368.303	0.27
368.763	0.27
369.223	0.27
369.684	0.27
370.144	0.27
370.604	0.27
371.064	0.27
371.524	0.27
371.984	0.27
372.444	0.27
372.904	0.27
373.363	0.27
373.823	0.27
374.283	0.27
374.743	0.27
375.203	0.27
375.663	0.27
376.122	0.27
376.582	0.27
377.042	0.27
377.501	0.27
377.961	0.27
378.42	0.27
378.88	0.27
379.34	0.27
379.799	0.27
380.259	0.27
380.718	0.27
381.177	0.27
381.637	0.26
382.096	0.26
382.555	0.26
383.015	0.26
383.474	0.26
383.933	0.26
384.393	0.26
384.852	0.26
385.311	0.26
385.77	0.26
386.229	0.26
386.688	0.26
387.147	0.26
387.606	0.26
388.065	0.26
388.524	0.26
388.983	0.26
389.442	0.26
389.901	0.26
390.36	0.26
390.819	0.26
391.277	0.26
391.736	0.26
392.195	0.26
392.654	0.26
393.112	0.26
393.571	0.26
394.03	0.26
394.488	0.26
394.947	0.26
395.405	0.26
395.864	0.26
396.322	0.25
396.781	0.25
397.239	0.25
397.698	0.25
398.156	0.25
398.614	0.25
399.073	0.25
399.531	0.25
399.989	0.25
400.447	0.25
400.905	0.25
401.364	0.25
401.822	0.25
402.28	0.25
402.738	0.25
403.196	0.25
403.654	0.25
404.112	0.25
404.57	0.25
405.028	0.25
405.486	0.25
405.944	0.25
406.402	0.25
406.859	0.25
407.317	0.25
407.775	0.25
408.233	0.25
408.691	0.25
409.148	0.25
409.606	0.25
410.064	0.25
410.521	0.25
410.979	0.25
411.436	0.25
411.894	0.25
412.351	0.25
412.809	0.25
413.266	0.25
413.724	0.25
414.181	0.25
414.638	0.25
415.096	0.24
415.553	0.24
416.01	0.24
416.467	0.24
416.925	0.24
417.382	0.24
417.839	0.24
418.296	0.24
418.753	0.24
419.21	0.24
419.667	0.24
420.124	0.24
420.581	0.24
421.038	0.24
421.495	0.24
421.952	0.24
422.409	0.24
422.866	0.24
423.322	0.24
423.779	0.24
424.236	0.24
424.693	0.24
425.149	0.24
425.606	0.24
426.063	0.24
426.519	0.24
426.976	0.24
427.433	0.24
427.889	0.24
428.346	0.24
428.802	0.24
429.258	0.24
429.715	0.24
430.171	0.24
430.628	0.24
431.084	0.24
431.54	0.24
431.997	0.24
432.453	0.24
432.909	0.24
433.365	0.24
433.821	0.24
434.277	0.24
434.734	0.24
435.19	0.24
435.646	0.24
436.102	0.24
436.558	0.24
437.014	0.24
437.47	0.24
437.925	0.24
438.381	0.24
438.837	0.24
439.293	0.24
439.749	0.24
440.205	0.24
440.66	0.24
441.116	0.24
441.572	0.24
442.027	0.24
442.483	0.24
442.939	0.24
443.394	0.24
443.85	0.24
444.305	0.24
444.761	0.24
445.216	0.24
445.672	0.24
446.127	0.24
446.582	0.24
447.038	0.24
447.493	0.24
447.948	0.24
448.403	0.24
448.859	0.24
449.314	0.24
449.769	0.24
450.224	0.24
450.679	0.24
451.134	0.24
451.589	0.24
452.044	0.24
452.499	0.24
452.954	0.24
453.409	0.24
453.864	0.24
454.319	0.24
454.774	0.24
455.229	0.24
455.684	0.24
456.138	0.24
456.593	0.24
457.048	0.24
457.503	0.24
457.957	0.24
458.412	0.24
458.866	0.24
459.321	0.24
459.776	0.24
460.23	0.24
460.685	0.24
461.139	0.24
461.593	0.24
462.048	0.24
462.502	0.24
462.957	0.24
463.411	0.24
463.865	0.24
464.319	0.24
464.774	0.24
465.228	0.24
465.682	0.24
466.136	0.24
466.59	0.24
467.044	0.24
467.499	0.24
467.953	0.24
468.407	0.24
468.861	0.24
469.315	0.24
469.768	0.24
470.222	0.25
470.676	0.25
471.13	0.25
471.584	0.25
472.038	0.25
472.491	0.25
472.945	0.25
473.399	0.25
473.852	0.25
474.306	0.25
474.76	0.25
475.213	0.25
475.667	0.25
476.12	0.25
476.574	0.25
477.027	0.25
477.481	0.26
477.934	0.26
478.388	0.26
478.841	0.26
479.294	0.26
479.748	0.26
480.201	0.26
480.654	0.26
481.107	0.26
481.561	0.26
482.014	0.26
482.467	0.27
482.92	0.27
483.373	0.27
483.826	0.27
484.279	0.27
484.732	0.27
485.185	0.27
485.638	0.27
486.091	0.27
486.544	0.28
486.997	0.28
487.449	0.28
487.902	0.28
488.355	0.28
488.808	0.28
489.26	0.29
489.713	0.29
490.166	0.29
490.618	0.29
491.071	0.29
491.523	0.29
491.976	0.29
492.429	0.3
492.881	0.3
493.333	0.3
493.786	0.3
494.238	0.3
494.691	0.31
495.143	0.31
495.595	0.31
496.048	0.31
496.5	0.31
496.952	0.32
497.404	0.32
497.856	0.32
498.309	0.32
498.761	0.32
499.213	0.33
499.665	0.33
500.117	0.33
500.569	0.33
501.021	0.34
501.473	0.34
501.925	0.34
502.377	0.34
502.828	0.35
503.28	0.35
503.732	0.35
504.184	0.35
504.636	0.35
505.087	0.36
505.539	0.36
505.991	0.36
506.442	0.36
506.894	0.36
507.345	0.37
507.797	0.37
508.249	0.37
508.7	0.37
509.151	0.38
509.603	0.38
510.054	0.38
510.506	0.38
510.957	0.38
511.408	0.38
511.86	0.39
512.311	0.39
512.762	0.39
513.213	0.39
513.665	0.39
514.116	0.39
514.567	0.39
515.018	0.39
515.469	0.4
515.92	0.4
516.371	0.4
516.822	0.4
517.273	0.4
517.724	0.4
518.175	0.4
518.626	0.4
519.076	0.4
519.527	0.41
519.978	0.41
520.429	0.41
520.88	0.41
521.33	0.41
521.781	0.41
522.232	0.41
522.682	0.41
523.133	0.41
523.583	0.41
524.034	0.41
524.484	0.41
524.935	0.41
525.385	0.41
525.836	0.41
526.286	0.41
526.736	0.41
527.187	0.41
527.637	0.41
528.087	0.4
528.538	0.4
528.988	0.4
529.438	0.4
529.888	0.4
530.338	0.4
530.788	0.4
531.238	0.4
531.688	0.4
532.139	0.39
532.589	0.39
533.038	0.39
533.488	0.39
533.938	0.39
534.388	0.38
534.838	0.38
535.288	0.38
535.738	0.38
536.187	0.38
536.637	0.37
537.087	0.37
537.537	0.37
537.986	0.37
538.436	0.37
538.885	0.36
539.335	0.36
539.785	0.36
540.234	0.36
540.684	0.35
541.133	0.35
541.582	0.35
542.032	0.34
542.481	0.34
542.931	0.34
543.38	0.34
543.829	0.33
544.278	0.33
544.728	0.33
545.177	0.33
545.626	0.32
546.075	0.32
546.524	0.32
546.973	0.31
547.422	0.31
547.871	0.31
548.32	0.31
548.769	0.3
549.218	0.3
549.667	0.3
550.116	0.29
550.565	0.29
551.014	0.29
551.463	0.28
551.911	0.28
552.36	0.28
552.809	0.27
553.258	0.27
553.706	0.27
554.155	0.26
554.603	0.26
555.052	0.26
555.501	0.26
555.949	0.25
556.398	0.25
556.846	0.25
557.294	0.24
557.743	0.24
558.191	0.24
558.64	0.24
559.088	0.23
559.536	0.23
559.985	0.23
560.433	0.23
560.881	0.22
561.329	0.22
561.777	0.22
562.225	0.22
562.674	0.21
563.122	0.21
563.57	0.21
564.018	0.21
564.466	0.2
564.914	0.2
565.362	0.2
565.809	0.19
566.257	0.19
566.705	0.19
567.153	0.19
567.601	0.19
568.048	0.18
568.496	0.18
568.944	0.18
569.392	0.18
569.839	0.17
570.287	0.17
570.734	0.17
571.182	0.17
571.63	0.17
572.077	0.16
572.525	0.16
572.972	0.16
573.419	0.16
573.867	0.16
574.314	0.16
574.761	0.16
575.209	0.15
575.656	0.15
576.103	0.15
576.551	0.15
576.998	0.15
577.445	0.15
577.892	0.14
578.339	0.14
578.786	0.14
579.233	0.14
579.68	0.14
580.127	0.14
580.574	0.14
581.021	0.14
581.468	0.13
581.915	0.13
582.362	0.13
582.809	0.13
583.255	0.13
583.702	0.13
584.149	0.13
584.596	0.12
585.042	0.12
585.489	0.12
585.936	0.12
586.382	0.12
586.829	0.12
587.275	0.12
587.722	0.12
588.168	0.12
588.615	0.12
589.061	0.12
589.508	0.11
589.954	0.11
590.4	0.11
590.847	0.11
591.293	0.11
591.739	0.11
592.185	0.11
592.632	0.11
593.078	0.11
593.524	0.11
593.97	0.11
594.416	0.11
594.862	0.11
595.308	0.11
595.754	0.11
596.2	0.11
596.646	0.1
597.092	0.1
597.538	0.1
597.984	0.1
598.43	0.1
598.876	0.1
599.321	0.1
599.767	0.1
600.213	0.1
600.659	0.1
601.104	0.1
601.55	0.1
601.995	0.1
602.441	0.1
602.887	0.1
603.332	0.1
603.778	0.1
604.223	0.1
604.668	0.1
605.114	0.1
605.559	0.1
606.005	0.1
606.45	0.1
606.895	0.1
607.341	0.1
607.786	0.1
608.231	0.1
608.676	0.1
609.121	0.1
609.566	0.1
610.012	0.1
610.457	0.1
610.902	0.1
611.347	0.1
611.792	0.1
612.237	0.1
612.682	0.1
613.127	0.1
613.571	0.1
614.016	0.1
614.461	0.1
614.906	0.1
615.351	0.1
615.795	0.1
616.24	0.1
616.685	0.1
617.129	0.1
617.574	0.1
618.019	0.1
618.463	0.1
618.908	0.1
619.352	0.1
619.797	0.1
620.241	0.11
620.686	0.11
621.13	0.11
621.574	0.11
622.019	0.11
622.463	0.11
622.907	0.11
623.352	0.11
623.796	0.11
624.24	0.11
624.684	0.11
625.128	0.11
625.572	0.11
626.016	0.11
626.461	0.11
626.905	0.11
627.349	0.12
627.793	0.12
628.236	0.12
628.68	0.12
629.124	0.12
629.568	0.12
630.012	0.12
630.456	0.12
630.9	0.12
631.343	0.12
631.787	0.12
632.231	0.13
632.674	0.13
633.118	0.13
633.562	0.13
634.005	0.13
634.449	0.13
634.892	0.14
635.336	0.14
635.779	0.14
636.223	0.14
636.666	0.14
637.109	0.14
637.553	0.15
637.996	0.15
638.439	0.15
638.883	0.15
639.326	0.15
639.769	0.15
640.212	0.16
640.655	0.16
641.099	0.16
641.542	0.16
641.985	0.17
642.428	0.17
642.871	0.17
643.314	0.17
643.757	0.17
644.2	0.18
644.643	0.18
645.085	0.18
645.528	0.18
645.971	0.18
646.414	0.19
646.857	0.19
647.299	0.19
647.742	0.2
648.185	0.2
648.627	0.2
649.07	0.2
649.513	0.21
649.955	0.21
650.398	0.21
650.84	0.22
651.283	0.22
651.725	0.22
652.168	0.23
652.61	0.23
653.052	0.24
653.495	0.24
653.937	0.18
654.379	0.15
654.821	0.15
655.264	0.16
655.706	0.16
656.148	0.16
656.59	0.16
657.032	0.16
657.474	0.17
657.916	0.17
658.358	0.16
658.8	0.21
659.242	0.28
659.684	0.29
660.126	0.29
660.568	0.29
661.01	0.29
661.452	0.3
661.894	0.3
662.335	0.31
662.777	0.31
663.219	0.31
663.661	0.32
664.102	0.32
664.544	0.32
664.985	0.33
665.427	0.33
665.869	0.33
666.31	0.33
666.752	0.34
667.193	0.34
667.634	0.34
668.076	0.35
668.517	0.35
668.959	0.35
669.4	0.36
669.841	0.36
670.282	0.36
670.724	0.37
671.165	0.37
671.606	0.37
672.047	0.38
672.488	0.38
672.929	0.38
673.37	0.38
673.811	0.39
674.252	0.39
674.693	0.39
675.134	0.39
675.575	0.39
676.016	0.4
676.457	0.4
676.898	0.4
677.339	0.4
677.78	0.4
678.22	0.4
678.661	0.41
679.102	0.41
679.542	0.41
679.983	0.41
680.424	0.41
680.864	0.41
681.305	0.41
681.745	0.41
682.186	0.42
682.626	0.42
683.067	0.42
683.507	0.42
683.948	0.42
684.388	0.42
684.828	0.42
685.269	0.42
685.709	0.42
686.149	0.42
686.589	0.42
687.029	0.42
687.47	0.42
687.91	0.42
688.35	0.42
688.79	0.42
689.23	0.42
689.67	0.42
690.11	0.42
690.55	0.42
690.99	0.42
691.43	0.42
691.87	0.42
692.31	0.42
692.749	0.41
693.189	0.41
693.629	0.41
694.069	0.41
694.508	0.41
694.948	0.41
695.388	0.4
695.827	0.4
696.267	0.4
696.706	0.4
697.146	0.4
697.586	0.4
698.025	0.39
698.464	0.39
698.904	0.39
699.343	0.39
699.783	0.39
700.222	0.38
700.661	0.38
701.101	0.38
701.54	0.38
701.979	0.37
702.418	0.37
702.857	0.37
703.297	0.37
703.736	0.36
704.175	0.36
704.614	0.36
705.053	0.36
705.492	0.35
705.931	0.35
706.37	0.35
706.809	0.35
707.248	0.34
707.687	0.34
708.125	0.34
708.564	0.33
709.003	0.33
709.442	0.33
709.88	0.33
710.319	0.32
710.758	0.32
711.196	0.32
711.635	0.31
712.074	0.31
712.512	0.31
712.951	0.3
713.389	0.3
713.828	0.3
714.266	0.3
714.705	0.29
715.143	0.29
715.581	0.29
716.02	0.29
716.458	0.28
716.896	0.28
717.334	0.28
717.773	0.28
718.211	0.27
718.649	0.27
719.087	0.27
719.525	0.27
719.963	0.26
720.401	0.26
720.839	0.26
721.277	0.25
721.715	0.25
722.153	0.25
722.591	0.25
723.029	0.24
723.467	0.24
723.905	0.24
724.342	0.24
724.78	0.23
725.218	0.23
725.656	0.23
726.093	0.23
726.531	0.23
726.969	0.22
727.406	0.22
727.844	0.22
728.281	0.22
728.719	0.21
729.156	0.21
729.594	0.21
730.031	0.21
730.469	0.2
730.906	0.2
731.343	0.2
731.781	0.2
732.218	0.19
732.655	0.19
733.092	0.19
733.53	0.19
733.967	0.18
734.404	0.18
734.841	0.18
735.278	0.18
735.715	0.18
736.152	0.17
736.589	0.17
737.026	0.17
737.463	0.17
737.9	0.17
738.337	0.17
738.774	0.16
739.211	0.16
739.647	0.16
740.084	0.16
740.521	0.16
740.958	0.16
741.394	0.15
741.831	0.15
742.268	0.15
742.704	0.15
743.141	0.14
743.577	0.14
744.014	0.14
744.45	0.14
744.887	0.13
745.323	0.13
745.76	0.13
746.196	0.13
746.632	0.13
747.069	0.12
747.505	0.12
747.941	0.12
748.378	0.12
748.814	0.12
749.25	0.12
749.686	0.12
750.122	0.12
750.558	0.12
750.994	0.12
751.43	0.11
751.866	0.11
752.302	0.11
752.738	0.11
753.174	0.11
753.61	0.11
754.046	0.11
754.482	0.1
754.918	0.1
755.354	0.1
755.789	0.1
756.225	0.1
756.661	0.1
757.096	0.1
757.532	0.1
757.968	0.1
758.403	0.09
758.839	0.09
759.274	0.09
759.71	0.09
760.145	0.09
760.581	0.09
761.016	0.09
761.452	0.09
761.887	0.09
762.322	0.09
762.758	0.09
763.193	0.08
763.628	0.08
764.063	0.08
764.499	0.08
764.934	0.08
765.369	0.08
765.804	0.08
766.239	0.08
766.674	0.08
767.109	0.08
767.544	0.08
767.979	0.08
768.414	0.08
768.849	0.08
769.284	0.08
769.719	0.07
770.154	0.07
770.588	0.07
771.023	0.07
771.458	0.07
771.893	0.07
772.327	0.07
772.762	0.07
773.197	0.06
773.631	0.06
774.066	0.06
774.5	0.06
774.935	0.06
775.369	0.06
775.804	0.06
776.238	0.05
776.673	0.05
777.107	0.05
777.541	0.05
777.976	0.05
778.41	0.05
778.844	0.05
779.279	0.05
779.713	0.05
780.147	0.05
780.581	0.05
781.015	0.05
781.449	0.04
781.883	0.04
782.317	0.04
782.751	0.04
783.185	0.04
783.619	0.04
784.053	0.04
784.487	0.04
784.921	0.04
785.355	0.04
785.789	0.04
786.223	0.04
786.656	0.04
787.09	0.04
787.524	0.04
787.957	0.04
788.391	0.04
788.825	0.04
789.258	0.04
789.692	0.04
790.125	0.04
790.559	0.04
790.992	0.04
791.426	0.04
791.859	0.04
792.293	0.04
792.726	0.04
793.159	0.04
793.593	0.04
794.026	0.04
794.459	0.04
794.892	0.04
795.326	0.04
795.759	0.04
796.192	0.04
796.625	0.03
797.058	0.03
797.491	0.03
797.924	0.03
798.357	0.03
798.79	0.03
799.223	0.03
799.656	0.03
800.089	0.03
800.522	0.03
800.955	0.03
801.387	0.03
801.82	0.03
802.253	0.03
802.686	0.03
803.118	0.03
803.551	0.03
803.984	0.03
804.416	0.02
804.849	0.02
805.281	0.02
805.714	0.02
806.146	0.02
806.579	0.02
807.011	0.02
807.444	0.02
807.876	0.03
808.308	0.03
808.741	0.02
809.173	0.02
809.605	0.02
810.037	0.02
810.47	0.02
810.902	0.02
811.334	0.02
811.766	0.02
812.198	0.02
812.63	0.02
813.062	0.02
813.494	0.02
813.926	0.02
814.358	0.02
814.79	0.02
815.222	0.02
815.654	0.02
816.086	0.02
816.518	0.02
816.949	0.02
817.381	0.02
817.813	0.02
818.245	0.02
818.676	0.02
819.108	0.02
819.54	0.02
819.971	0.02
820.403	0.02
820.834	0.02
821.266	0.02
821.697	0.02
822.129	0.02
822.56	0.02
822.991	0.02
823.423	0.02
823.854	0.02
824.286	0.02
824.717	0.02
825.148	0.02
825.579	0.02
826.01	0.02
826.442	0.02
826.873	0.02
827.304	0.02
827.735	0.02
828.166	0.02
828.597	0.02
829.028	0.02
829.459	0.02
829.89	0.02
830.321	0.02
830.752	0.02
831.183	0.02
831.613	0.02
832.044	0.02
832.475	0.02
832.906	0.02
833.336	0.02
833.767	0.02
834.198	0.02
834.628	0.02
835.059	0.02
835.49	0.02
835.92	0.02
836.351	0.02
836.781	0.02
837.212	0.02
837.642	0.02
838.072	0.02
838.503	0.02
838.933	0.02
839.364	0.02
839.794	0.02
840.224	0.02
840.654	0.02
841.085	0.02
841.515	0.02
841.945	0.02
842.375	0.02
842.805	0.02
843.235	0.02
843.665	0.01
844.095	0.01
844.525	0.01
844.955	0.01
845.385	0.01
845.815	0.01
846.245	0.01
846.675	0.01
847.105	0.01
847.534	0.01
847.964	0.01
848.394	0.01
848.824	0.01
849.253	0.01
849.683	0.01
850.112	0.01
850.542	0.01
850.972	0.01
851.401	0.01
851.831	0.01
852.26	0.02
852.69	0.02
853.119	0.02
853.548	0.02
853.978	0.02
854.407	0.02
854.836	0.02
855.266	0.02
855.695	0.02
856.124	0.02
856.553	0.02
856.983	0.02
857.412	0.02
857.841	0.02
858.27	0.02
858.699	0.01
859.128	0.01
859.557	0.01
859.986	0.01
860.415	0.01
860.844	0.01
861.273	0.01
861.702	0.01
862.13	0.01
862.559	0.01
862.988	0.01
863.417	0.01
863.845	0.01
864.274	0.01
864.703	0.01
865.131	0.01
865.56	0.01
865.989	0.01
866.417	0.01
866.846	0.01
867.274	0.01
867.703	0.01
868.131	0.01
868.559	0.01
868.988	0.01
869.416	0.01
869.844	0.01
870.273	0.01
870.701	0.01
871.129	0.01
871.557	0.01
871.986	0.01
872.414	0.01
872.842	0.01
873.27	0.01
873.698	0.01
874.126	0.01
874.554	0.01
874.982	0.01
875.41	0.01
875.838	0.01
876.266	0.01
876.694	0.01
877.122	0.01
877.549	0.01
877.977	0.01
878.405	0.01
878.833	0.01
879.26	0.01
879.688	0.01
880.116	0.01
880.543	0.01
880.971	0.01
881.399	0.01
881.826	0
882.254	0
882.681	0
883.109	0
