Data from agg-8_Absorbance__0__14-06-20-516.txt Node

Date: Thu Feb 22 14:06:20 CET 2024
User: Laser008
Spectrometer: MAYP115816
Trigger mode: 0
Integration Time (sec): 1.800000E-1
Scans to average: 10
Electric dark correction enabled: true
Nonlinearity correction enabled: true
Boxcar width: 5
XAxis mode: Wavelengths
Number of Pixels in Spectrum: 2068
>>>>>Begin Spectral Data<<<<<
198.914	-0.51
199.384	-0.48
199.855	-0.42
200.325	-0.35
200.796	-0.31
201.266	-0.28
201.737	-0.27
202.207	-0.26
202.677	-0.25
203.147	-0.25
203.618	-0.23
204.088	-0.22
204.558	-0.2
205.028	-0.19
205.498	-0.19
205.968	-0.2
206.439	-0.2
206.909	-0.2
207.379	-0.2
207.849	-0.2
208.319	-0.2
208.789	-0.2
209.258	-0.2
209.728	-0.21
210.198	-0.21
210.668	-0.21
211.138	-0.21
211.608	-0.21
212.077	-0.21
212.547	-0.21
213.017	-0.21
213.486	-0.21
213.956	-0.21
214.426	-0.21
214.895	-0.21
215.365	-0.21
215.834	-0.22
216.304	-0.22
216.773	-0.22
217.243	-0.22
217.712	-0.22
218.181	-0.22
218.651	-0.21
219.12	-0.21
219.589	-0.22
220.058	-0.22
220.528	-0.22
220.997	-0.22
221.466	-0.22
221.935	-0.21
222.404	-0.21
222.873	-0.21
223.342	-0.21
223.812	-0.21
224.281	-0.2
224.749	-0.2
225.218	-0.19
225.687	-0.19
226.156	-0.18
226.625	-0.17
227.094	-0.16
227.563	-0.15
228.031	-0.14
228.5	-0.12
228.969	-0.11
229.438	-0.09
229.906	-0.07
230.375	-0.05
230.844	-0.02
231.312	0
231.781	0.02
232.249	0.05
232.718	0.07
233.186	0.09
233.655	0.11
234.123	0.13
234.591	0.15
235.06	0.16
235.528	0.18
235.996	0.19
236.465	0.21
236.933	0.22
237.401	0.23
237.869	0.24
238.337	0.25
238.805	0.26
239.274	0.26
239.742	0.27
240.21	0.27
240.678	0.28
241.146	0.28
241.614	0.28
242.081	0.29
242.549	0.29
243.017	0.29
243.485	0.3
243.953	0.3
244.421	0.3
244.888	0.3
245.356	0.31
245.824	0.31
246.291	0.31
246.759	0.31
247.227	0.31
247.694	0.32
248.162	0.32
248.629	0.32
249.097	0.32
249.564	0.33
250.032	0.33
250.499	0.33
250.967	0.33
251.434	0.33
251.901	0.34
252.369	0.34
252.836	0.34
253.303	0.34
253.77	0.34
254.237	0.34
254.705	0.34
255.172	0.35
255.639	0.35
256.106	0.35
256.573	0.35
257.04	0.35
257.507	0.35
257.974	0.35
258.441	0.35
258.908	0.35
259.375	0.35
259.841	0.35
260.308	0.36
260.775	0.35
261.242	0.36
261.709	0.36
262.175	0.35
262.642	0.35
263.109	0.35
263.575	0.35
264.042	0.35
264.508	0.35
264.975	0.35
265.441	0.35
265.908	0.35
266.374	0.35
266.841	0.35
267.307	0.35
267.773	0.35
268.24	0.34
268.706	0.34
269.172	0.34
269.639	0.34
270.105	0.34
270.571	0.34
271.037	0.33
271.503	0.33
271.969	0.33
272.435	0.33
272.902	0.33
273.368	0.33
273.834	0.33
274.3	0.32
274.765	0.32
275.231	0.32
275.697	0.32
276.163	0.32
276.629	0.32
277.095	0.31
277.56	0.31
278.026	0.31
278.492	0.31
278.958	0.3
279.423	0.3
279.889	0.3
280.354	0.29
280.82	0.29
281.286	0.29
281.751	0.29
282.217	0.29
282.682	0.28
283.147	0.28
283.613	0.28
284.078	0.28
284.544	0.28
285.009	0.28
285.474	0.28
285.939	0.27
286.405	0.27
286.87	0.27
287.335	0.27
287.8	0.27
288.265	0.27
288.73	0.27
289.195	0.26
289.66	0.26
290.125	0.26
290.59	0.26
291.055	0.26
291.52	0.26
291.985	0.26
292.45	0.26
292.915	0.26
293.38	0.25
293.844	0.25
294.309	0.25
294.774	0.25
295.239	0.25
295.703	0.25
296.168	0.25
296.632	0.25
297.097	0.25
297.562	0.25
298.026	0.25
298.491	0.25
298.955	0.25
299.419	0.25
299.884	0.25
300.348	0.25
300.813	0.25
301.277	0.25
301.741	0.25
302.205	0.25
302.67	0.25
303.134	0.25
303.598	0.25
304.062	0.24
304.526	0.24
304.99	0.24
305.454	0.24
305.919	0.24
306.383	0.24
306.847	0.24
307.31	0.24
307.774	0.24
308.238	0.24
308.702	0.24
309.166	0.24
309.63	0.24
310.094	0.24
310.557	0.24
311.021	0.24
311.485	0.24
311.948	0.24
312.412	0.24
312.876	0.24
313.339	0.24
313.803	0.24
314.266	0.24
314.73	0.24
315.193	0.24
315.657	0.24
316.12	0.24
316.584	0.24
317.047	0.24
317.51	0.24
317.973	0.24
318.437	0.24
318.9	0.24
319.363	0.24
319.826	0.24
320.29	0.24
320.753	0.24
321.216	0.24
321.679	0.24
322.142	0.24
322.605	0.24
323.068	0.24
323.531	0.24
323.994	0.24
324.457	0.24
324.92	0.24
325.382	0.24
325.845	0.23
326.308	0.23
326.771	0.23
327.233	0.23
327.696	0.23
328.159	0.23
328.622	0.23
329.084	0.23
329.547	0.23
330.009	0.23
330.472	0.23
330.934	0.23
331.397	0.23
331.859	0.23
332.322	0.23
332.784	0.23
333.246	0.23
333.709	0.23
334.171	0.23
334.633	0.23
335.096	0.23
335.558	0.23
336.02	0.23
336.482	0.23
336.944	0.23
337.406	0.23
337.868	0.23
338.331	0.23
338.793	0.23
339.255	0.23
339.717	0.23
340.178	0.23
340.64	0.23
341.102	0.23
341.564	0.23
342.026	0.23
342.488	0.23
342.949	0.23
343.411	0.23
343.873	0.23
344.335	0.23
344.796	0.23
345.258	0.22
345.719	0.22
346.181	0.22
346.643	0.22
347.104	0.22
347.566	0.22
348.027	0.22
348.488	0.22
348.95	0.22
349.411	0.22
349.873	0.22
350.334	0.22
350.795	0.22
351.256	0.22
351.718	0.22
352.179	0.22
352.64	0.22
353.101	0.22
353.562	0.22
354.023	0.22
354.484	0.22
354.945	0.22
355.406	0.22
355.867	0.22
356.328	0.22
356.789	0.22
357.25	0.22
357.711	0.22
358.172	0.22
358.633	0.22
359.093	0.22
359.554	0.22
360.015	0.22
360.476	0.22
360.936	0.22
361.397	0.22
361.858	0.22
362.318	0.22
362.779	0.22
363.239	0.22
363.7	0.22
364.16	0.22
364.621	0.22
365.081	0.22
365.541	0.22
366.002	0.22
366.462	0.22
366.922	0.22
367.383	0.22
367.843	0.22
368.303	0.22
368.763	0.22
369.223	0.22
369.684	0.22
370.144	0.22
370.604	0.22
371.064	0.22
371.524	0.22
371.984	0.22
372.444	0.22
372.904	0.22
373.363	0.22
373.823	0.22
374.283	0.22
374.743	0.22
375.203	0.22
375.663	0.22
376.122	0.22
376.582	0.22
377.042	0.22
377.501	0.22
377.961	0.22
378.42	0.22
378.88	0.22
379.34	0.22
379.799	0.22
380.259	0.22
380.718	0.22
381.177	0.22
381.637	0.22
382.096	0.22
382.555	0.22
383.015	0.22
383.474	0.22
383.933	0.22
384.393	0.22
384.852	0.22
385.311	0.22
385.77	0.22
386.229	0.22
386.688	0.22
387.147	0.22
387.606	0.22
388.065	0.22
388.524	0.22
388.983	0.22
389.442	0.22
389.901	0.22
390.36	0.22
390.819	0.22
391.277	0.22
391.736	0.22
392.195	0.22
392.654	0.22
393.112	0.22
393.571	0.22
394.03	0.22
394.488	0.22
394.947	0.22
395.405	0.22
395.864	0.22
396.322	0.22
396.781	0.22
397.239	0.22
397.698	0.22
398.156	0.22
398.614	0.22
399.073	0.22
399.531	0.22
399.989	0.22
400.447	0.22
400.905	0.22
401.364	0.22
401.822	0.22
402.28	0.22
402.738	0.22
403.196	0.22
403.654	0.22
404.112	0.22
404.57	0.22
405.028	0.22
405.486	0.22
405.944	0.22
406.402	0.22
406.859	0.22
407.317	0.22
407.775	0.22
408.233	0.22
408.691	0.22
409.148	0.22
409.606	0.22
410.064	0.22
410.521	0.22
410.979	0.22
411.436	0.22
411.894	0.22
412.351	0.22
412.809	0.22
413.266	0.22
413.724	0.22
414.181	0.22
414.638	0.22
415.096	0.22
415.553	0.22
416.01	0.22
416.467	0.22
416.925	0.22
417.382	0.22
417.839	0.22
418.296	0.22
418.753	0.22
419.21	0.22
419.667	0.22
420.124	0.22
420.581	0.22
421.038	0.22
421.495	0.22
421.952	0.22
422.409	0.22
422.866	0.22
423.322	0.22
423.779	0.22
424.236	0.22
424.693	0.22
425.149	0.22
425.606	0.22
426.063	0.22
426.519	0.22
426.976	0.22
427.433	0.22
427.889	0.22
428.346	0.22
428.802	0.22
429.258	0.22
429.715	0.22
430.171	0.22
430.628	0.22
431.084	0.22
431.54	0.22
431.997	0.22
432.453	0.21
432.909	0.21
433.365	0.21
433.821	0.21
434.277	0.22
434.734	0.22
435.19	0.22
435.646	0.22
436.102	0.22
436.558	0.21
437.014	0.21
437.47	0.21
437.925	0.21
438.381	0.21
438.837	0.21
439.293	0.21
439.749	0.21
440.205	0.21
440.66	0.21
441.116	0.21
441.572	0.21
442.027	0.21
442.483	0.21
442.939	0.21
443.394	0.21
443.85	0.21
444.305	0.21
444.761	0.21
445.216	0.21
445.672	0.21
446.127	0.21
446.582	0.21
447.038	0.21
447.493	0.21
447.948	0.21
448.403	0.21
448.859	0.21
449.314	0.21
449.769	0.21
450.224	0.21
450.679	0.21
451.134	0.21
451.589	0.21
452.044	0.21
452.499	0.21
452.954	0.21
453.409	0.21
453.864	0.21
454.319	0.21
454.774	0.21
455.229	0.21
455.684	0.21
456.138	0.21
456.593	0.21
457.048	0.21
457.503	0.21
457.957	0.21
458.412	0.21
458.866	0.21
459.321	0.21
459.776	0.21
460.23	0.21
460.685	0.21
461.139	0.21
461.593	0.21
462.048	0.21
462.502	0.21
462.957	0.21
463.411	0.21
463.865	0.21
464.319	0.21
464.774	0.21
465.228	0.21
465.682	0.21
466.136	0.21
466.59	0.21
467.044	0.21
467.499	0.21
467.953	0.21
468.407	0.21
468.861	0.21
469.315	0.21
469.768	0.21
470.222	0.21
470.676	0.21
471.13	0.21
471.584	0.21
472.038	0.21
472.491	0.21
472.945	0.21
473.399	0.21
473.852	0.21
474.306	0.21
474.76	0.21
475.213	0.21
475.667	0.21
476.12	0.21
476.574	0.21
477.027	0.21
477.481	0.21
477.934	0.21
478.388	0.21
478.841	0.21
479.294	0.21
479.748	0.21
480.201	0.21
480.654	0.21
481.107	0.21
481.561	0.21
482.014	0.21
482.467	0.21
482.92	0.21
483.373	0.21
483.826	0.21
484.279	0.21
484.732	0.21
485.185	0.21
485.638	0.21
486.091	0.21
486.544	0.21
486.997	0.22
487.449	0.21
487.902	0.21
488.355	0.21
488.808	0.22
489.26	0.22
489.713	0.22
490.166	0.22
490.618	0.22
491.071	0.22
491.523	0.22
491.976	0.22
492.429	0.22
492.881	0.22
493.333	0.22
493.786	0.22
494.238	0.22
494.691	0.22
495.143	0.22
495.595	0.22
496.048	0.23
496.5	0.23
496.952	0.23
497.404	0.23
497.856	0.23
498.309	0.23
498.761	0.23
499.213	0.23
499.665	0.23
500.117	0.23
500.569	0.23
501.021	0.23
501.473	0.23
501.925	0.24
502.377	0.24
502.828	0.24
503.28	0.24
503.732	0.24
504.184	0.24
504.636	0.24
505.087	0.24
505.539	0.24
505.991	0.24
506.442	0.24
506.894	0.24
507.345	0.24
507.797	0.25
508.249	0.25
508.7	0.25
509.151	0.25
509.603	0.25
510.054	0.25
510.506	0.25
510.957	0.25
511.408	0.25
511.86	0.25
512.311	0.26
512.762	0.26
513.213	0.26
513.665	0.26
514.116	0.26
514.567	0.26
515.018	0.26
515.469	0.26
515.92	0.26
516.371	0.26
516.822	0.26
517.273	0.26
517.724	0.26
518.175	0.26
518.626	0.26
519.076	0.27
519.527	0.27
519.978	0.27
520.429	0.27
520.88	0.27
521.33	0.27
521.781	0.27
522.232	0.27
522.682	0.27
523.133	0.27
523.583	0.27
524.034	0.27
524.484	0.27
524.935	0.27
525.385	0.28
525.836	0.28
526.286	0.28
526.736	0.28
527.187	0.28
527.637	0.28
528.087	0.28
528.538	0.28
528.988	0.28
529.438	0.28
529.888	0.28
530.338	0.28
530.788	0.28
531.238	0.28
531.688	0.28
532.139	0.29
532.589	0.29
533.038	0.29
533.488	0.29
533.938	0.29
534.388	0.29
534.838	0.29
535.288	0.29
535.738	0.29
536.187	0.29
536.637	0.29
537.087	0.29
537.537	0.29
537.986	0.29
538.436	0.29
538.885	0.29
539.335	0.29
539.785	0.29
540.234	0.29
540.684	0.29
541.133	0.29
541.582	0.29
542.032	0.3
542.481	0.3
542.931	0.3
543.38	0.3
543.829	0.3
544.278	0.3
544.728	0.3
545.177	0.3
545.626	0.3
546.075	0.3
546.524	0.3
546.973	0.3
547.422	0.3
547.871	0.3
548.32	0.3
548.769	0.3
549.218	0.3
549.667	0.3
550.116	0.3
550.565	0.3
551.014	0.3
551.463	0.3
551.911	0.3
552.36	0.31
552.809	0.31
553.258	0.31
553.706	0.31
554.155	0.31
554.603	0.31
555.052	0.31
555.501	0.31
555.949	0.31
556.398	0.31
556.846	0.31
557.294	0.31
557.743	0.31
558.191	0.31
558.64	0.31
559.088	0.31
559.536	0.31
559.985	0.31
560.433	0.31
560.881	0.31
561.329	0.31
561.777	0.31
562.225	0.31
562.674	0.31
563.122	0.31
563.57	0.31
564.018	0.31
564.466	0.31
564.914	0.31
565.362	0.31
565.809	0.31
566.257	0.31
566.705	0.31
567.153	0.31
567.601	0.31
568.048	0.31
568.496	0.31
568.944	0.31
569.392	0.31
569.839	0.31
570.287	0.31
570.734	0.31
571.182	0.31
571.63	0.31
572.077	0.31
572.525	0.31
572.972	0.31
573.419	0.31
573.867	0.31
574.314	0.31
574.761	0.31
575.209	0.31
575.656	0.31
576.103	0.31
576.551	0.31
576.998	0.31
577.445	0.31
577.892	0.31
578.339	0.31
578.786	0.31
579.233	0.31
579.68	0.31
580.127	0.31
580.574	0.3
581.021	0.3
581.468	0.3
581.915	0.3
582.362	0.3
582.809	0.3
583.255	0.3
583.702	0.3
584.149	0.3
584.596	0.3
585.042	0.3
585.489	0.3
585.936	0.3
586.382	0.3
586.829	0.3
587.275	0.3
587.722	0.29
588.168	0.29
588.615	0.29
589.061	0.29
589.508	0.29
589.954	0.29
590.4	0.3
590.847	0.3
591.293	0.3
591.739	0.29
592.185	0.29
592.632	0.29
593.078	0.29
593.524	0.29
593.97	0.29
594.416	0.29
594.862	0.29
595.308	0.29
595.754	0.29
596.2	0.29
596.646	0.29
597.092	0.29
597.538	0.29
597.984	0.28
598.43	0.28
598.876	0.28
599.321	0.28
599.767	0.28
600.213	0.28
600.659	0.28
601.104	0.28
601.55	0.28
601.995	0.27
602.441	0.27
602.887	0.27
603.332	0.27
603.778	0.27
604.223	0.27
604.668	0.27
605.114	0.27
605.559	0.27
606.005	0.27
606.45	0.27
606.895	0.27
607.341	0.27
607.786	0.27
608.231	0.26
608.676	0.26
609.121	0.26
609.566	0.26
610.012	0.26
610.457	0.26
610.902	0.26
611.347	0.26
611.792	0.26
612.237	0.26
612.682	0.26
613.127	0.26
613.571	0.26
614.016	0.25
614.461	0.25
614.906	0.25
615.351	0.25
615.795	0.25
616.24	0.25
616.685	0.25
617.129	0.25
617.574	0.24
618.019	0.24
618.463	0.24
618.908	0.24
619.352	0.24
619.797	0.24
620.241	0.24
620.686	0.24
621.13	0.24
621.574	0.24
622.019	0.24
622.463	0.23
622.907	0.23
623.352	0.23
623.796	0.23
624.24	0.23
624.684	0.23
625.128	0.23
625.572	0.23
626.016	0.23
626.461	0.23
626.905	0.23
627.349	0.23
627.793	0.23
628.236	0.23
628.68	0.23
629.124	0.23
629.568	0.22
630.012	0.22
630.456	0.22
630.9	0.22
631.343	0.22
631.787	0.22
632.231	0.22
632.674	0.22
633.118	0.22
633.562	0.22
634.005	0.22
634.449	0.22
634.892	0.22
635.336	0.22
635.779	0.22
636.223	0.22
636.666	0.22
637.109	0.22
637.553	0.22
637.996	0.22
638.439	0.22
638.883	0.22
639.326	0.22
639.769	0.22
640.212	0.22
640.655	0.22
641.099	0.22
641.542	0.22
641.985	0.22
642.428	0.22
642.871	0.22
643.314	0.22
643.757	0.22
644.2	0.22
644.643	0.22
645.085	0.22
645.528	0.22
645.971	0.22
646.414	0.22
646.857	0.22
647.299	0.22
647.742	0.22
648.185	0.22
648.627	0.22
649.07	0.22
649.513	0.22
649.955	0.23
650.398	0.23
650.84	0.23
651.283	0.23
651.725	0.23
652.168	0.23
652.61	0.23
653.052	0.24
653.495	0.24
653.937	0.19
654.379	0.15
654.821	0.15
655.264	0.15
655.706	0.15
656.148	0.15
656.59	0.15
657.032	0.15
657.474	0.15
657.916	0.15
658.358	0.14
658.8	0.18
659.242	0.24
659.684	0.24
660.126	0.24
660.568	0.24
661.01	0.24
661.452	0.25
661.894	0.25
662.335	0.25
662.777	0.25
663.219	0.25
663.661	0.25
664.102	0.25
664.544	0.25
664.985	0.25
665.427	0.26
665.869	0.26
666.31	0.26
666.752	0.26
667.193	0.26
667.634	0.26
668.076	0.26
668.517	0.26
668.959	0.27
669.4	0.27
669.841	0.27
670.282	0.27
670.724	0.27
671.165	0.27
671.606	0.27
672.047	0.27
672.488	0.27
672.929	0.28
673.37	0.28
673.811	0.28
674.252	0.28
674.693	0.28
675.134	0.28
675.575	0.28
676.016	0.28
676.457	0.28
676.898	0.28
677.339	0.28
677.78	0.29
678.22	0.29
678.661	0.29
679.102	0.29
679.542	0.29
679.983	0.29
680.424	0.29
680.864	0.29
681.305	0.29
681.745	0.29
682.186	0.29
682.626	0.3
683.067	0.3
683.507	0.3
683.948	0.3
684.388	0.3
684.828	0.3
685.269	0.3
685.709	0.3
686.149	0.3
686.589	0.3
687.029	0.3
687.47	0.3
687.91	0.3
688.35	0.31
688.79	0.31
689.23	0.31
689.67	0.31
690.11	0.31
690.55	0.31
690.99	0.31
691.43	0.31
691.87	0.31
692.31	0.31
692.749	0.31
693.189	0.31
693.629	0.31
694.069	0.31
694.508	0.31
694.948	0.31
695.388	0.31
695.827	0.31
696.267	0.31
696.706	0.31
697.146	0.31
697.586	0.31
698.025	0.31
698.464	0.32
698.904	0.32
699.343	0.32
699.783	0.31
700.222	0.32
700.661	0.32
701.101	0.32
701.54	0.32
701.979	0.32
702.418	0.32
702.857	0.32
703.297	0.32
703.736	0.32
704.175	0.32
704.614	0.32
705.053	0.32
705.492	0.32
705.931	0.33
706.37	0.33
706.809	0.33
707.248	0.33
707.687	0.33
708.125	0.33
708.564	0.33
709.003	0.32
709.442	0.32
709.88	0.32
710.319	0.32
710.758	0.32
711.196	0.32
711.635	0.32
712.074	0.32
712.512	0.32
712.951	0.32
713.389	0.32
713.828	0.32
714.266	0.32
714.705	0.32
715.143	0.32
715.581	0.32
716.02	0.32
716.458	0.32
716.896	0.32
717.334	0.32
717.773	0.32
718.211	0.32
718.649	0.32
719.087	0.32
719.525	0.32
719.963	0.32
720.401	0.32
720.839	0.32
721.277	0.32
721.715	0.32
722.153	0.32
722.591	0.32
723.029	0.32
723.467	0.32
723.905	0.32
724.342	0.32
724.78	0.32
725.218	0.32
725.656	0.32
726.093	0.32
726.531	0.32
726.969	0.32
727.406	0.32
727.844	0.32
728.281	0.32
728.719	0.32
729.156	0.32
729.594	0.32
730.031	0.32
730.469	0.32
730.906	0.32
731.343	0.32
731.781	0.32
732.218	0.32
732.655	0.32
733.092	0.32
733.53	0.32
733.967	0.32
734.404	0.32
734.841	0.32
735.278	0.31
735.715	0.31
736.152	0.31
736.589	0.31
737.026	0.31
737.463	0.32
737.9	0.32
738.337	0.32
738.774	0.32
739.211	0.32
739.647	0.32
740.084	0.32
740.521	0.32
740.958	0.32
741.394	0.32
741.831	0.31
742.268	0.31
742.704	0.31
743.141	0.31
743.577	0.31
744.014	0.31
744.45	0.31
744.887	0.31
745.323	0.31
745.76	0.31
746.196	0.31
746.632	0.31
747.069	0.31
747.505	0.31
747.941	0.31
748.378	0.31
748.814	0.31
749.25	0.31
749.686	0.31
750.122	0.31
750.558	0.31
750.994	0.31
751.43	0.31
751.866	0.31
752.302	0.3
752.738	0.3
753.174	0.3
753.61	0.3
754.046	0.3
754.482	0.31
754.918	0.31
755.354	0.31
755.789	0.31
756.225	0.3
756.661	0.3
757.096	0.3
757.532	0.3
757.968	0.3
758.403	0.3
758.839	0.3
759.274	0.3
759.71	0.3
760.145	0.3
760.581	0.3
761.016	0.3
761.452	0.3
761.887	0.3
762.322	0.3
762.758	0.3
763.193	0.3
763.628	0.3
764.063	0.3
764.499	0.3
764.934	0.3
765.369	0.3
765.804	0.3
766.239	0.3
766.674	0.3
767.109	0.3
767.544	0.3
767.979	0.3
768.414	0.3
768.849	0.3
769.284	0.29
769.719	0.29
770.154	0.29
770.588	0.29
771.023	0.29
771.458	0.29
771.893	0.29
772.327	0.29
772.762	0.29
773.197	0.29
773.631	0.29
774.066	0.29
774.5	0.29
774.935	0.29
775.369	0.29
775.804	0.29
776.238	0.29
776.673	0.29
777.107	0.29
777.541	0.29
777.976	0.29
778.41	0.29
778.844	0.29
779.279	0.28
779.713	0.28
780.147	0.28
780.581	0.28
781.015	0.28
781.449	0.28
781.883	0.28
782.317	0.28
782.751	0.28
783.185	0.28
783.619	0.27
784.053	0.27
784.487	0.27
784.921	0.27
785.355	0.27
785.789	0.27
786.223	0.27
786.656	0.27
787.09	0.27
787.524	0.27
787.957	0.27
788.391	0.27
788.825	0.27
789.258	0.27
789.692	0.27
790.125	0.27
790.559	0.27
790.992	0.27
791.426	0.27
791.859	0.27
792.293	0.27
792.726	0.27
793.159	0.27
793.593	0.26
794.026	0.26
794.459	0.26
794.892	0.26
795.326	0.26
795.759	0.26
796.192	0.26
796.625	0.26
797.058	0.26
797.491	0.26
797.924	0.26
798.357	0.26
798.79	0.26
799.223	0.26
799.656	0.26
800.089	0.26
800.522	0.26
800.955	0.26
801.387	0.26
801.82	0.26
802.253	0.26
802.686	0.26
803.118	0.26
803.551	0.26
803.984	0.26
804.416	0.26
804.849	0.25
805.281	0.25
805.714	0.25
806.146	0.25
806.579	0.25
807.011	0.25
807.444	0.25
807.876	0.25
808.308	0.25
808.741	0.25
809.173	0.25
809.605	0.25
810.037	0.25
810.47	0.25
810.902	0.25
811.334	0.25
811.766	0.25
812.198	0.25
812.63	0.25
813.062	0.25
813.494	0.24
813.926	0.24
814.358	0.24
814.79	0.24
815.222	0.24
815.654	0.24
816.086	0.24
816.518	0.24
816.949	0.24
817.381	0.24
817.813	0.24
818.245	0.24
818.676	0.23
819.108	0.23
819.54	0.23
819.971	0.23
820.403	0.23
820.834	0.23
821.266	0.23
821.697	0.23
822.129	0.23
822.56	0.23
822.991	0.23
823.423	0.23
823.854	0.23
824.286	0.23
824.717	0.23
825.148	0.23
825.579	0.23
826.01	0.23
826.442	0.23
826.873	0.23
827.304	0.23
827.735	0.23
828.166	0.23
828.597	0.23
829.028	0.23
829.459	0.23
829.89	0.23
830.321	0.22
830.752	0.22
831.183	0.22
831.613	0.22
832.044	0.22
832.475	0.22
832.906	0.22
833.336	0.22
833.767	0.22
834.198	0.22
834.628	0.22
835.059	0.22
835.49	0.22
835.92	0.21
836.351	0.21
836.781	0.21
837.212	0.21
837.642	0.21
838.072	0.21
838.503	0.21
838.933	0.21
839.364	0.21
839.794	0.21
840.224	0.21
840.654	0.21
841.085	0.21
841.515	0.21
841.945	0.21
842.375	0.21
842.805	0.21
843.235	0.21
843.665	0.21
844.095	0.21
844.525	0.21
844.955	0.21
845.385	0.21
845.815	0.21
846.245	0.21
846.675	0.21
847.105	0.21
847.534	0.21
847.964	0.2
848.394	0.2
848.824	0.2
849.253	0.2
849.683	0.2
850.112	0.2
850.542	0.2
850.972	0.2
851.401	0.2
851.831	0.2
852.26	0.2
852.69	0.19
853.119	0.19
853.548	0.19
853.978	0.19
854.407	0.19
854.836	0.19
855.266	0.19
855.695	0.19
856.124	0.19
856.553	0.19
856.983	0.19
857.412	0.19
857.841	0.19
858.27	0.19
858.699	0.18
859.128	0.18
859.557	0.18
859.986	0.19
860.415	0.19
860.844	0.19
861.273	0.19
861.702	0.19
862.13	0.19
862.559	0.19
862.988	0.19
863.417	0.19
863.845	0.19
864.274	0.18
864.703	0.18
865.131	0.18
865.56	0.18
865.989	0.18
866.417	0.18
866.846	0.18
867.274	0.18
867.703	0.18
868.131	0.18
868.559	0.18
868.988	0.18
869.416	0.18
869.844	0.18
870.273	0.18
870.701	0.18
871.129	0.18
871.557	0.18
871.986	0.17
872.414	0.17
872.842	0.17
873.27	0.17
873.698	0.17
874.126	0.17
874.554	0.17
874.982	0.17
875.41	0.17
875.838	0.17
876.266	0.17
876.694	0.17
877.122	0.17
877.549	0.17
877.977	0.17
878.405	0.17
878.833	0.17
879.26	0.17
879.688	0.17
880.116	0.17
880.543	0.17
880.971	0.17
881.399	0.17
881.826	0.17
882.254	0.17
882.681	0.16
883.109	0.16
